"Participant_ID","L1_L2","Fp1-Average_F0_stressed_mismatch","Fp1-Average_F0_stressed_match","Fp1-Average_F0_unstressed_mismatch","Fp1-Average_F0_unstressed_match","F3-Average_F0_stressed_mismatch","F3-Average_F0_stressed_match","F3-Average_F0_unstressed_mismatch","F3-Average_F0_unstressed_match","F7-Average_F0_stressed_mismatch","F7-Average_F0_stressed_match","F7-Average_F0_unstressed_mismatch","F7-Average_F0_unstressed_match","FT9-Average_F0_stressed_mismatch","FT9-Average_F0_stressed_match","FT9-Average_F0_unstressed_mismatch","FT9-Average_F0_unstressed_match","FC5-Average_F0_stressed_mismatch","FC5-Average_F0_stressed_match","FC5-Average_F0_unstressed_mismatch","FC5-Average_F0_unstressed_match","FC1-Average_F0_stressed_mismatch","FC1-Average_F0_stressed_match","FC1-Average_F0_unstressed_mismatch","FC1-Average_F0_unstressed_match","C3-Average_F0_stressed_mismatch","C3-Average_F0_stressed_match","C3-Average_F0_unstressed_mismatch","C3-Average_F0_unstressed_match","T7-Average_F0_stressed_mismatch","T7-Average_F0_stressed_match","T7-Average_F0_unstressed_mismatch","T7-Average_F0_unstressed_match","TP9-Average_F0_stressed_mismatch","TP9-Average_F0_stressed_match","TP9-Average_F0_unstressed_mismatch","TP9-Average_F0_unstressed_match","CP5-Average_F0_stressed_mismatch","CP5-Average_F0_stressed_match","CP5-Average_F0_unstressed_mismatch","CP5-Average_F0_unstressed_match","CP1-Average_F0_stressed_mismatch","CP1-Average_F0_stressed_match","CP1-Average_F0_unstressed_mismatch","CP1-Average_F0_unstressed_match","Pz-Average_F0_stressed_mismatch","Pz-Average_F0_stressed_match","Pz-Average_F0_unstressed_mismatch","Pz-Average_F0_unstressed_match","P3-Average_F0_stressed_mismatch","P3-Average_F0_stressed_match","P3-Average_F0_unstressed_mismatch","P3-Average_F0_unstressed_match","P7-Average_F0_stressed_mismatch","P7-Average_F0_stressed_match","P7-Average_F0_unstressed_mismatch","P7-Average_F0_unstressed_match","O1-Average_F0_stressed_mismatch","O1-Average_F0_stressed_match","O1-Average_F0_unstressed_mismatch","O1-Average_F0_unstressed_match","Oz-Average_F0_stressed_mismatch","Oz-Average_F0_stressed_match","Oz-Average_F0_unstressed_mismatch","Oz-Average_F0_unstressed_match","O2-Average_F0_stressed_mismatch","O2-Average_F0_stressed_match","O2-Average_F0_unstressed_mismatch","O2-Average_F0_unstressed_match","P4-Average_F0_stressed_mismatch","P4-Average_F0_stressed_match","P4-Average_F0_unstressed_mismatch","P4-Average_F0_unstressed_match","P8-Average_F0_stressed_mismatch","P8-Average_F0_stressed_match","P8-Average_F0_unstressed_mismatch","P8-Average_F0_unstressed_match","TP10-Average_F0_stressed_mismatch","TP10-Average_F0_stressed_match","TP10-Average_F0_unstressed_mismatch","TP10-Average_F0_unstressed_match","CP6-Average_F0_stressed_mismatch","CP6-Average_F0_stressed_match","CP6-Average_F0_unstressed_mismatch","CP6-Average_F0_unstressed_match","CP2-Average_F0_stressed_mismatch","CP2-Average_F0_stressed_match","CP2-Average_F0_unstressed_mismatch","CP2-Average_F0_unstressed_match","Cz-Average_F0_stressed_mismatch","Cz-Average_F0_stressed_match","Cz-Average_F0_unstressed_mismatch","Cz-Average_F0_unstressed_match","C4-Average_F0_stressed_mismatch","C4-Average_F0_stressed_match","C4-Average_F0_unstressed_mismatch","C4-Average_F0_unstressed_match","T8-Average_F0_stressed_mismatch","T8-Average_F0_stressed_match","T8-Average_F0_unstressed_mismatch","T8-Average_F0_unstressed_match","FT10-Average_F0_stressed_mismatch","FT10-Average_F0_stressed_match","FT10-Average_F0_unstressed_mismatch","FT10-Average_F0_unstressed_match","FC6-Average_F0_stressed_mismatch","FC6-Average_F0_stressed_match","FC6-Average_F0_unstressed_mismatch","FC6-Average_F0_unstressed_match","FC2-Average_F0_stressed_mismatch","FC2-Average_F0_stressed_match","FC2-Average_F0_unstressed_mismatch","FC2-Average_F0_unstressed_match","F4-Average_F0_stressed_mismatch","F4-Average_F0_stressed_match","F4-Average_F0_unstressed_mismatch","F4-Average_F0_unstressed_match","F8-Average_F0_stressed_mismatch","F8-Average_F0_stressed_match","F8-Average_F0_unstressed_mismatch","F8-Average_F0_unstressed_match","Fp2-Average_F0_stressed_mismatch","Fp2-Average_F0_stressed_match","Fp2-Average_F0_unstressed_mismatch","Fp2-Average_F0_unstressed_match","Audio-Average_F0_stressed_mismatch","Audio-Average_F0_stressed_match","Audio-Average_F0_unstressed_mismatch","Audio-Average_F0_unstressed_match","Fz-Average_F0_stressed_mismatch","Fz-Average_F0_stressed_match","Fz-Average_F0_unstressed_mismatch","Fz-Average_F0_unstressed_match"
"stress1","L1",-5.256817,7.585823,-0.954559,-0.961754,-3.863773,4.641833,-2.029991,-0.540131,7.028051,-11.57822,4.317811,3.967151,4.299339,0.028948,2.931662,3.784892,0.842199,5.861856,-0.934958,-1.731242,-4.609908,4.403649,-2.947907,-0.431267,-4.326365,5.887142,-1.980786,-1.594452,-2.176416,3.262382,-4.163001,-0.282095,9.150826,-4.478934,6.127794,-2.551021,-1.006248,8.165995,-0.622876,-0.30984,-5.087996,4.264043,-0.388976,-0.872666,-4.618506,3.979835,0.259832,-1.160855,-4.53619,5.263991,-0.486774,-1.185986,4.343703,5.55695,4.137417,-1.326464,0.237983,3.922691,5.620107,0.433899,-0.857575,2.658076,2.513676,-0.381488,-0.708065,1.937439,1.13361,-0.17197,-4.837289,4.063223,1.336302,-0.134788,-1.301838,1.976917,-0.357812,0.976761,8.090635,-10.653841,-0.373552,2.648374,-3.469804,3.545231,-1.231856,1.204309,-4.637664,4.415703,-0.842102,-0.302772,-5.066233,4.181426,-0.974928,0.098216,-5.181765,3.913194,-0.723641,0.2733,-7.113156,1.721801,-5.956422,1.226573,-6.686769,9.918686,-5.17162,2.167636,-4.361001,9.494116,-3.445424,2.927638,-5.098422,3.907867,-2.203273,0.558981,-5.552569,6.356695,-3.866769,0.678277,-0.889245,-9.225047,-13.748517,8.329541,-11.803743,2.52688,-6.345909,0.898551,82.825539,-642.338074,-1345.401001,720.221436,-5.747156,5.04426,-1.918084,-0.032449
"stress1","L2",-3.017158,2.33747,3.309184,-2.795942,-0.407925,-0.92468,1.338026,-0.257323,0.660516,1.505834,2.481065,-3.329426,0.883035,1.070246,1.622154,-2.597306,1.322241,-0.520901,1.179477,-0.633229,0.13161,-2.738916,-0.66803,-0.163141,2.328419,-1.489872,-0.536027,0.096012,-0.135699,0.356861,0.733741,-1.397287,2.080259,3.203008,0.07116,-0.323374,1.104151,-1.105618,0.069893,-0.309233,2.408109,-2.338654,-2.134382,1.18794,1.725546,-1.97194,-1.568017,1.751274,0.199386,-1.504282,-1.192166,1.279538,1.951481,-0.156887,-1.580348,-0.486279,1.617213,-0.718801,-0.692714,0.617301,0.74627,-0.689925,-0.135947,1.439864,0.221505,-0.412598,-1.033093,1.795598,0.293194,-2.466359,-1.722663,0.984234,0.258872,-0.436115,-0.235253,0.72642,2.425808,3.031131,-0.263165,1.691043,0.686629,-2.220336,-2.290749,0.32443,1.522898,-3.309733,-3.311995,0.812762,1.355949,-3.51506,-2.72825,0.879061,-0.459453,-1.649997,-2.79243,0.073115,0.687234,-0.093058,-0.300314,1.278152,1.558305,1.590027,-0.811563,1.489702,-0.349171,-0.082088,-0.794891,-0.299841,-0.950243,-3.332137,-1.488522,0.701301,-0.932189,-2.008338,0.218849,-1.219072,1.051307,1.700302,-0.871503,0.489722,-0.847084,1.115935,3.306575,-2.402644,-257.313904,-538.753967,-635.447266,1672.673828,-1.502022,-2.078046,0.064002,-0.45589
"stress10","L2",0.030721,-10.631691,-4.873641,-4.968812,-1.041517,-3.900727,-5.84023,-0.336652,-0.364513,-1.778927,-14.290787,8.105832,0.89061,0.91408,-9.639932,6.49726,-1.41305,-2.350451,-8.472379,3.397252,-2.939741,-3.787437,-3.237663,-0.942573,-3.237732,-1.748839,-5.467546,0.364887,-0.98635,-0.828886,-6.618467,3.453145,4.152854,6.358229,-2.068893,6.669386,-2.655464,-0.505588,-4.983717,1.597642,-3.509868,-1.188339,-3.934609,-0.81318,-1.938451,-0.347487,-3.166878,-0.888876,-2.892226,0.300516,-3.335999,-0.149831,-0.491446,1.753962,-3.014455,2.57097,-0.530697,3.461177,-3.831795,0.60939,0.423808,3.499182,-3.267775,0.320328,-0.101987,2.456464,-2.145365,-0.433877,-3.683037,0.779415,-2.374774,-2.824697,-0.739074,1.038244,0.220489,-0.854707,3.85493,6.60658,4.469857,4.166006,-3.687119,-0.442271,-0.713279,-2.618547,-3.164799,-1.834448,-2.204127,-1.389353,-4.063487,-2.60194,-2.333925,-2.299681,-4.329318,-2.274839,-0.196706,-3.052698,-2.830117,-0.369745,2.70142,-3.55369,-1.017761,1.228933,5.128199,-5.393313,-4.215033,-0.439677,3.072529,-6.146574,-4.263991,-4.267815,-0.7965,-3.508456,-4.494522,-4.035636,1.599834,-5.826917,-3.295334,0.020318,8.576841,-10.48365,-3.215263,-10.481106,2.96569,-8.548083,991.672119,-676.151855,1554.455444,-190.692917,-2.669263,-4.321604,-0.800322,-3.611797
"stress11","L2",-7.209719,0.431455,-6.123008,-10.854908,-8.345563,0.412204,0.935056,-6.461031,-23.599031,-10.344409,-4.900907,-12.701107,-18.11598,-8.782772,-0.584951,-4.694685,-10.084723,-1.412545,-0.277975,-4.481384,-3.144057,2.170077,0.24972,-3.322435,-2.640738,1.13664,-0.594958,-2.507224,-11.841413,-4.367686,-1.602458,-2.34399,-7.627334,-8.816301,1.806863,0.623948,-3.703307,0.353364,0.15495,-0.168596,-0.562734,2.278722,-1.728288,-2.790577,-1.215381,1.82169,-1.033227,-4.602106,0.065177,1.945304,0.654172,-1.107939,-2.436886,-0.491676,1.101452,3.562917,2.441704,2.35613,1.800158,0.894518,2.949319,1.909191,1.200224,0.826491,3.974685,1.932612,2.59059,-0.971626,1.342266,1.606523,-1.659613,5.941553,4.872948,2.684173,1.824089,0.410602,6.646871,-2.830479,2.191245,4.027006,2.97629,2.238906,-1.81714,2.412268,0.299439,2.18775,-1.772342,-1.486802,-1.129716,1.766707,-1.357892,-2.897738,3.447227,1.63929,-4.45436,0.304293,6.575851,5.807627,-1.532717,1.903373,14.531616,7.142101,-0.555716,6.261651,11.663301,6.63465,-2.475435,4.357577,1.475914,3.623835,-4.042207,-1.234325,7.325407,6.025398,-4.805285,1.958763,23.274132,10.003689,-0.696483,7.856959,11.208277,-6.261791,-11.706067,-7.944833,905.009094,-723.90686,1244.590332,-443.224365,0.32682,3.88226,-1.332702,-1.550318
"stress12","L2",1.086976,1.132505,-0.077467,-0.814025,0.759005,4.602423,1.726601,-0.93684,0.064118,2.024822,1.801219,-0.140043,2.313026,0.54604,-0.913418,-1.574158,0.57432,3.750794,1.618483,0.521397,0.59635,3.933563,1.516059,-1.219792,-0.795884,3.711868,1.68877,-0.377399,-0.266516,2.126569,1.335477,2.016974,-3.643397,-6.976192,0.467043,2.263968,-1.657384,1.209439,2.527192,0.672858,-0.783569,2.766122,1.338651,0.949832,-1.978215,0.246211,1.36329,-0.581983,-1.573051,1.028394,2.075425,1.671631,-1.717357,-0.889064,1.823115,2.271691,-1.718672,-2.149373,1.760223,2.160075,-2.069223,-2.837424,0.238286,0.830046,-2.825346,-4.01176,-0.33116,0.228796,-2.309001,-2.595038,0.803715,-1.587896,-2.294069,-4.373993,-0.537591,-1.155453,-1.846852,-6.235484,-1.205232,-0.096264,-1.145813,-1.612498,-0.246773,-1.770179,0.212317,0.644847,0.181893,-0.410128,0.06727,2.997059,1.145856,-0.113578,0.292625,-0.037548,0.327683,-0.893253,-1.056054,-0.701762,-0.401571,-1.435797,4.740574,-1.90188,-3.025671,-1.200214,2.267898,2.058244,-1.601775,-1.534266,1.981618,3.347941,-0.111741,-1.864629,1.389556,2.150045,-1.09859,-2.302745,3.670823,5.382652,-2.001338,-3.924042,1.847045,1.41499,-1.053571,-1.37323,36.277035,-796.288635,656.582092,-149.935654,1.830083,4.403893,0.246062,-0.722569
"stress13","L2",-2.913627,1.255324,-0.62106,0.541181,-2.825431,3.418703,1.476435,2.456435,-1.649436,1.923366,0.238874,1.823176,-0.598036,-0.419426,-3.162387,1.917961,-1.495095,2.488256,1.973969,2.241925,-3.585325,1.184445,2.303144,-0.834703,-1.812872,1.598722,3.488673,-1.357005,-0.086766,1.176248,1.280549,-0.823452,2.994301,-3.923013,-3.491579,-0.536956,-0.324598,1.169016,2.887288,-1.652192,-0.692862,0.175881,2.070757,-3.500148,0.400824,-0.679106,1.506311,-5.462337,0.80268,0.402337,2.552963,-3.651785,0.641473,-0.083016,1.942429,-1.153723,2.24681,-1.65772,0.466505,-2.567135,2.580501,-2.454025,-1.003694,-2.53797,1.781135,-2.201551,-0.434346,-2.887274,0.676759,-1.594989,0.663902,-4.89205,0.938996,-1.317869,-0.41305,-1.213153,4.214967,-3.045914,-2.279241,-0.02265,-0.805131,-1.327811,1.16878,-2.639902,-0.829334,-0.466805,1.874447,-5.133544,-1.068839,0.231667,1.74531,-2.942549,-0.731695,0.011839,1.581476,-3.350133,0.182851,0.34177,0.983944,-1.428609,-0.410626,0.776812,-1.005745,0.4464,-1.104923,1.838182,2.134468,-1.253837,-1.339123,1.369385,3.546457,-2.326182,-1.759891,1.733342,1.44269,-2.027052,-0.282981,1.41759,3.781467,-2.238559,-1.812564,1.000455,0.023598,1.248608,1187.07251,-575.180664,1685.706299,-488.291016,-2.403089,2.322976,1.923608,0.186535
"stress14","L2",-5.094007,2.128478,-2.569245,5.771324,-3.143452,2.051754,-2.271457,6.490594,-8.132565,3.615051,-2.395368,6.396179,-3.41316,1.090651,-1.118843,1.682171,-2.065493,2.415464,-2.444448,4.721153,-0.326781,1.391739,-0.909329,5.91551,-0.730616,0.411276,0.027114,3.01873,-2.690612,1.776048,1.148392,3.063843,0.418878,-2.37805,5.540963,-5.050307,-3.569937,-0.312465,0.987417,1.865436,-1.622091,-2.118161,2.39169,1.578345,-2.366032,-3.275419,4.069012,-1.147974,-3.616976,-3.413864,3.542922,0.507942,-2.943612,-2.187998,2.715816,0.026276,-4.044839,-3.475561,4.709746,-0.447599,-3.789775,-4.300713,4.466156,-2.519282,-3.77254,-4.973528,2.25694,-3.124146,-2.06156,-1.549258,1.466913,-2.601146,-1.415974,-0.827993,1.868456,-2.94423,3.162999,-3.990233,6.030963,-8.417882,-2.224938,-0.234973,-1.419284,-2.058189,-1.840088,-1.975745,1.074404,-0.500228,-0.067952,-0.796402,1.293603,2.588918,-1.107454,-0.442587,-0.350453,-0.633647,3.436425,-1.96451,-1.467761,-0.979833,8.360287,-3.835627,0.843383,-3.596558,3.068251,-0.297757,-2.530879,-0.003892,-0.942097,1.468154,-2.605822,2.830337,0.749354,0.878113,-4.442249,1.977872,7.66079,-2.337811,-1.250497,-0.568339,-2.294652,3.317466,-4.42287,3.601199,1171.644897,-666.928223,1619.890625,-643.596802,-1.19396,2.122762,-3.85731,4.489396
"stress15","L2",1.534803,0.163326,-3.253771,-0.07362,2.010722,-0.165543,-1.767771,0.347423,2.105879,1.640244,-1.467902,-0.133132,2.15256,1.648565,0.823105,0.556003,2.013893,1.758472,-1.745856,0.853838,1.133667,-1.677211,-2.214566,-1.22782,-0.320674,-0.307894,-2.406806,1.17506,0.823715,2.037704,-2.020407,1.67437,0.037055,2.606717,2.677006,1.906802,-0.128471,-0.724703,-1.337315,1.681297,-2.133704,-4.759795,-2.510348,1.049308,-2.608198,-7.262929,-2.098805,1.487992,-1.098713,-3.55883,-0.850509,2.281418,-0.574782,-1.162748,-0.406157,1.58746,-1.884743,-2.674324,2.445754,3.130151,-2.052728,-4.008284,2.762576,2.643151,-1.911691,-5.242685,2.696676,2.64942,-2.562279,-6.67362,0.389574,0.968475,-1.714832,-2.961364,0.934587,2.47952,-2.956147,2.569872,7.659492,2.510983,-1.671572,-3.892752,-1.08579,0.012346,-3.100511,-6.580928,-1.866942,-0.199253,-1.140549,-5.309793,-3.139827,-0.997948,-1.378603,-3.587424,-1.025503,-0.963658,-1.859045,0.415087,-1.131041,0.183503,-0.450755,1.56878,0.229128,1.042656,-0.780738,-0.245961,-1.132706,-1.319291,-0.67206,-2.928477,-1.244274,-1.666261,-0.02615,-1.925734,-1.026055,-0.596964,0.684208,0.493239,-0.654622,0.869535,0.643111,-2.570659,-3.52349,5.534426,1079.473389,-490.244415,1536.838867,-440.824524,0.973031,-1.72553,-3.445498,-1.472595
"stress16","L2",-46.845768,-28.930489,-3.870444,-4.784011,-11.588895,-7.664838,-1.860057,-1.334564,-10.181188,-6.268627,-2.242855,0.050274,0.104892,-0.24572,-0.794793,1.974548,-3.804128,-2.91101,-1.317028,1.555688,-3.346581,-3.749742,-2.048154,-0.576406,1.734588,-0.665148,-1.985504,0.556319,2.360185,0.311131,0.577381,1.800485,12.036023,9.394574,3.869451,2.759278,3.105325,0.452463,-1.178421,0.645398,1.740616,-0.145234,-1.192544,-1.367594,2.132285,-0.343623,-1.168088,-1.60363,4.206196,-0.539016,-1.34092,-0.653458,4.418853,1.420471,0.802662,0.502418,5.134186,0.379618,0.279207,-1.561561,4.482424,0.354035,0.690579,-3.02529,3.169625,0.922768,-1.980695,-4.839157,1.329537,-1.435949,-0.906724,-2.400734,2.27074,1.586816,-0.686403,-3.087724,11.234616,11.074958,2.87498,0.239988,0.740754,-0.116988,-0.519915,-1.613103,-0.116392,-1.053958,-1.051057,-1.725288,-0.840036,-1.538508,-1.142508,-1.568067,-1.168041,-1.022362,-0.176514,-1.090624,1.049581,2.682525,0.211494,0.682751,1.535778,1.759126,-0.580417,2.308676,-2.153119,-0.992304,-0.31186,0.529593,-3.374315,-3.963819,-1.738078,-2.203937,-8.91412,-6.841441,-0.985089,-0.69725,-6.035775,-1.858729,-1.628548,2.0081,-32.601532,-21.948633,-3.881154,-1.967681,1048.19458,-442.198029,1408.440063,-274.067047,-7.756884,-6.823181,-2.248144,-0.999756
"stress17","L2",-2.531475,-2.178745,1.081586,-5.468116,-3.644962,-1.536352,-4.717227,-3.792545,-1.046671,0.823742,-3.580167,-3.486767,1.146113,1.548435,0.643321,-1.386392,-2.214916,-0.153858,-4.623443,-2.684777,-4.076973,-1.962931,-5.462138,-3.609622,-2.101595,-2.40179,-4.081039,-2.088129,-0.133215,0.316876,-1.27963,-1.193017,7.022954,3.312187,3.389365,4.17435,-0.691672,-1.454036,-2.505686,-1.061149,-2.247703,-3.21806,-3.925249,-3.480065,-2.360544,-3.544044,-2.740064,-3.925658,-1.383845,-3.576867,-2.060079,-1.821023,0.332902,-0.696388,-1.212166,-0.289489,-0.528205,-2.136217,0.018285,-0.129069,-0.510473,-2.224651,-0.057199,-0.049414,0.04839,-1.610663,0.565503,0.149794,0.390267,-3.116443,-0.033776,1.02273,0.98316,-1.59239,1.096719,1.310426,7.505687,2.841112,6.839065,7.72246,-0.283179,-2.382783,0.756891,-0.155746,-3.185826,-3.978067,-2.571102,-3.887944,-4.140694,-3.695774,-5.449131,-4.242235,-3.075839,-3.087279,-1.786794,-2.352829,-0.451632,0.099227,3.059906,1.506263,-0.445071,1.607243,8.013207,3.049625,-2.924468,-1.33028,1.607882,-1.409541,-6.460585,-2.712436,-1.937727,-5.131946,-5.143318,-1.404422,-0.849752,-2.758883,-2.731628,0.493548,7.732199,0.830671,-3.195083,-0.824963,3.922575,-3.080789,1062.564087,-542.38855,1456.305054,-284.143463,-4.84288,-2.0511,-3.409476,-3.965603
"stress18","L2",0.007685,0.860724,-0.442867,-0.223707,-0.661509,-1.23284,1.747307,-0.167795,0.420702,1.072897,1.318784,0.719763,1.73299,1.522307,-0.032857,0.225525,1.056596,0.387058,1.268954,1.534092,0.481788,-1.532659,2.311423,-0.915134,1.796587,-0.626385,2.531446,-0.198865,1.880628,0.576354,1.487006,1.01018,1.599878,3.198849,-1.791792,1.808308,1.574062,-0.401171,2.548686,-0.667373,2.789128,-0.781251,0.689514,-2.114931,2.621585,-0.304226,-0.403804,-3.788168,2.697562,-0.188195,0.960273,-2.968629,2.249257,-0.218887,2.182197,-0.009576,3.743418,1.022383,0.043972,-1.528736,3.338112,1.004521,-1.306487,-0.796539,1.980169,0.289501,-1.540194,-0.761756,1.15441,-2.389936,-1.354247,-2.399223,0.489042,-0.819396,-0.89821,0.014646,-0.524085,2.804885,-3.729255,0.58492,-0.998331,-3.102655,-1.170326,-1.183506,-0.131088,-2.199335,-1.899413,-3.306695,1.340802,-1.221547,0.507257,-2.199005,-0.115302,-3.728025,-0.46783,-2.76052,-0.46272,-1.135318,-2.150776,-2.343542,-1.776841,1.642773,-1.219201,-1.523118,-1.725939,-1.413823,0.35166,-1.971995,-1.485718,-2.012691,1.469816,-2.942211,-2.258983,-0.212898,1.17664,-2.280095,-3.467753,0.723114,-1.810215,-4.234296,-1.271329,1.668005,-0.026615,-2.247176,994.685974,-671.710571,1084.156372,-335.773102,-0.358596,-2.001245,1.840348,-0.797741
"stress19","L2",-1.607606,0.487196,-0.635014,1.400668,-0.930787,-1.027637,-1.578033,3.788102,-1.33978,-1.416305,-0.757514,2.821185,0.723767,-0.891686,0.039223,-0.201601,-0.291569,-0.981864,-0.669049,3.181031,-1.3073,-0.65292,-0.937215,3.054418,0.303354,-1.165691,-0.516805,2.477051,1.803289,-1.733875,0.838571,0.396034,3.038915,-0.489805,2.228169,-3.961685,1.614162,-1.377865,-0.369278,0.845479,0.159545,-2.190375,-1.572359,-0.548438,1.532161,-2.223397,-1.611801,-2.032559,2.312422,-1.769811,-0.229266,-1.985494,1.360141,-1.586006,0.380562,-1.451696,3.410426,-2.212321,0.31081,-0.760146,2.50408,-1.080246,0.498447,-2.82348,2.951471,-1.367378,0.697071,-3.280708,1.682618,-1.86202,0.406165,-2.941655,1.427831,-0.802182,1.843419,-2.81168,0.923647,1.524389,3.293438,-3.718107,0.673915,-1.405861,0.395079,-1.991254,0.605451,-2.946323,-0.90685,-1.300122,-0.695055,-1.928053,-1.437679,0.511379,0.01145,-0.642087,-0.481523,-0.420707,0.648627,0.29047,1.456326,-1.182559,0.935311,0.316287,1.983797,-1.522378,-0.30095,0.796037,0.312278,0.219191,-2.25302,-0.44875,-0.420374,0.658336,-1.429155,0.411599,0.424602,0.809873,-0.774387,0.781563,2.122822,0.087026,-0.669898,1.347775,-0.20853,-0.589261,947.544189,-613.630554,774.12561,-541.179749,-1.320853,-0.344862,-1.840534,2.55993
"stress2","L1",2.356765,0.993018,0.512096,0.814553,2.259122,-0.259966,0.552265,1.310344,2.244578,0.046672,0.653381,2.150415,1.95085,-0.206219,0.471097,0.934631,1.478158,-0.60507,0.206729,1.659431,0.285662,-0.588171,0.80553,-1.205092,0.197318,-0.290536,-1.369455,-0.369398,1.553946,0.006407,0.272887,0.601513,-0.096707,-0.031485,-0.68698,1.120748,-0.662303,0.88472,-0.655363,-0.092731,-0.875468,-1.45568,-1.160022,-1.923973,-2.246382,-0.514439,-1.741401,-1.258469,-2.059254,0.231696,-1.15217,-1.163566,0.297637,-0.345444,-1.618022,0.395268,-2.255234,-0.032647,-0.917852,-0.844876,-2.109014,-0.23066,-1.540976,-2.095573,-3.007478,-0.102281,-2.248625,-1.755798,-2.966252,-0.235561,-1.907884,-0.507161,-3.122083,-0.278873,-0.654993,-1.065523,-1.253295,0.74236,-1.029127,-0.754302,-2.657587,-0.528306,-1.342219,0.094632,-2.674655,-0.549681,-1.55837,-0.614014,-0.919359,-0.514245,-1.842706,-1.590248,-1.798725,-0.176819,-1.379861,-0.436741,-1.812994,-0.672291,-0.040251,-1.719856,0.791683,-0.185554,0.211181,0.450124,-0.21634,-0.763176,0.260628,0.523257,-0.124604,-0.399353,-0.391992,-0.845512,-0.162228,1.200566,1.533183,-0.185676,1.980828,-0.736243,1.604664,0.392216,1.45355,0.346733,3.101459,-1.681279,-74.734863,-481.986237,-1231.49707,776.924744,0.450001,-0.236958,0.572036,-0.122148
"stress2","L2",-2.355337,-1.326708,1.438397,-0.077871,-4.712322,-0.922316,0.656276,-0.007224,-2.037301,0.365444,1.167027,-1.726344,-1.007538,0.327671,2.78619,0.722242,-2.127378,-0.937015,0.506287,-1.105017,-5.673626,-0.752385,0.596509,-0.576028,-3.128265,-1.489887,0.344358,-2.545816,-0.582972,-1.715959,1.522637,-0.150114,8.027372,-0.361391,2.412839,4.686078,0.907084,-1.355976,0.566397,-0.252457,-1.75194,-2.594105,0.902244,-2.212048,0.541151,-1.594006,0.082118,-2.304805,0.106659,-1.954504,1.511358,-0.293696,3.293941,-0.184793,1.680493,4.186839,3.339511,1.040573,1.511362,3.866448,3.452373,0.52778,2.369315,2.099945,4.045771,0.671642,1.258718,1.34727,1.183894,-0.833729,-1.222041,-2.431647,2.910833,1.191778,0.998905,0.273739,6.967649,0.059573,3.514423,1.677611,0.186043,-0.955893,-1.06208,-3.031769,-1.933341,-1.900921,-0.587923,-2.821029,-4.234088,-1.89043,1.024929,-2.920273,-3.622915,-1.805939,-1.567149,-5.774368,0.268891,0.231002,-0.152407,-2.588731,-0.719652,-0.781447,0.118831,-3.410353,-3.834633,1.321045,-1.381163,-6.919443,-6.838321,-0.319447,-1.27617,-4.655632,-3.828534,0.138949,-1.858657,-5.66061,-3.254851,-1.899876,0.630054,-7.12537,-3.907758,0.790498,0.371575,-5.062199,-293.054321,-526.401123,-700.101929,1645.311157,-4.99834,0.100606,-1.975753,-2.121229
"stress20","L2",-18.655058,-12.306737,-2.630055,-8.690288,-4.307809,-4.490563,-2.524308,-1.8601,2.79359,-6.94121,0.001186,-1.899213,5.832471,-2.991028,-0.213332,1.191917,0.868583,-3.524012,-1.642483,-0.097414,-2.7662,-1.654207,-2.616458,-1.694433,-2.102757,-0.720208,-1.74099,-0.710968,2.167419,-1.194267,-0.151734,0.015308,8.958192,0.942435,3.951269,3.661099,-0.185752,0.458959,0.362634,-0.083441,-3.440975,0.407066,-1.645871,-0.926114,-3.249099,1.80793,-1.257577,-1.262931,-2.144032,2.012993,0.768666,-0.668668,0.716167,-0.069461,3.322337,-0.152182,-1.221368,2.830051,3.021369,-0.785798,-1.176732,3.016853,1.64054,-0.712352,-1.100568,2.441295,1.543069,-0.155425,-2.425017,2.570661,-0.501908,-0.613657,-0.849398,1.268379,2.42547,0.112579,7.163508,3.199924,4.141829,2.510305,-2.007179,2.043914,-0.398168,-0.577558,-4.601676,1.43468,-1.775165,-1.25957,-4.082662,0.601439,-3.307909,-1.324208,-3.899429,1.167831,-1.484466,-1.60748,-0.794489,1.698237,-0.230512,-1.606454,1.488866,2.219054,-0.664423,-0.198953,-4.113748,0.416852,-2.445245,-2.68536,-4.015483,0.048674,-2.599711,-1.086174,-6.119402,-0.746123,-2.935883,-2.970851,-6.047958,1.540474,-3.651931,-2.820374,-16.742292,-7.812803,-3.297647,-6.560805,951.971008,-620.4328,1024.982056,-154.960327,-5.373899,-1.380787,-2.697698,-2.057134
"stress21","L2",-1.172646,-0.096271,-0.84898,-1.689252,-0.525576,-0.305975,-1.560444,-1.342535,0.157282,0.746606,0.890817,-2.247949,-0.024899,-0.162096,-0.370158,0.17873,-3.889422,-0.57414,0.254816,-0.648282,-0.072968,0.98243,-2.394229,-1.711808,0.683018,1.879259,-1.100525,-1.379232,-3.903706,0.006255,-0.00893,-0.553371,0.540525,0.16193,3.493809,2.52791,0.275179,0.782793,-0.887218,-1.33001,-0.445442,2.567615,-2.263236,-2.655484,-0.032222,3.511322,-0.982487,-1.546281,-0.044557,3.240907,-0.700904,-1.181452,0.240457,1.757108,0.164156,0.100548,0.101975,3.736781,0.271819,0.222139,0.746716,3.774194,1.116449,0.896525,0.330721,3.419401,1.048322,0.272011,-0.859513,2.97159,-0.012669,-0.896492,-0.500245,1.929617,1.136522,-0.373228,1.46304,1.254099,3.694623,2.105499,-1.0903,1.634645,0.357405,-1.481963,-0.822935,2.288411,-1.767488,-2.391261,-1.975196,1.64483,-1.873418,-3.379213,-0.980212,1.134461,-1.067022,-1.927072,-0.78581,1.264577,1.190037,-0.758512,-0.368994,0.574314,0.976359,-0.828197,-3.200457,-0.024633,-0.013537,-0.976509,-1.980401,0.462425,-2.563699,-2.65468,-1.808066,-1.759647,-1.712872,-0.88331,-1.898517,0.246025,2.476854,-0.605313,-1.861254,-0.632969,1.063476,-1.396622,990.505737,-530.772461,979.843079,-322.571533,-0.667855,-0.472009,-2.396145,-1.54447
"stress22","L2",1.991253,2.970558,2.216169,-6.707373,1.074399,0.540362,-2.975397,-3.960324,1.687939,-1.181217,-0.96225,-1.189531,2.040109,-2.787786,0.096226,1.082941,0.263564,-1.386023,-2.796284,-0.778914,0.283872,0.683304,-5.596919,-3.113155,-0.427223,0.317346,-4.109156,0.219631,0.689857,-2.859061,-1.27405,1.166528,-0.810519,-2.236615,4.166756,4.533116,-1.013788,-1.968506,-2.563001,0.089074,-1.731652,1.32288,-4.125704,-0.003108,-3.351233,1.703492,-2.771136,-0.603897,-1.807823,-0.396828,-3.156691,1.044901,-1.148287,-2.600825,-2.032408,0.886276,-4.115611,0.090628,-0.704933,-1.593932,-4.333144,0.860427,-0.259926,-1.802445,-4.356158,0.606968,0.151339,-2.596151,-2.530184,2.063862,-1.291365,-1.500267,-2.931083,1.411049,1.670225,-2.138536,-3.479024,0.492309,7.118687,3.80993,-0.994013,2.490633,0.120947,-1.402025,-2.059685,1.863227,-3.165719,-0.400288,-1.078482,1.102175,-4.235661,-0.717364,-0.262361,2.232727,-2.647502,-2.074796,-1.195953,2.433809,2.47443,-0.953146,-2.148934,0.595591,3.389352,0.951139,-1.303844,2.402413,0.734368,-1.92438,-0.029383,1.966697,-3.577447,-3.160765,0.250107,2.675376,-1.05394,-3.716004,-1.016832,2.1757,2.744033,-0.60533,1.005551,5.48084,3.033434,-4.256316,716.285583,-771.174622,1032.876465,-201.657516,1.429848,0.581436,-3.761815,-2.781015
"stress23","L2",1.156208,9.953605,-0.029628,-1.485536,0.771084,5.414637,-0.887941,-0.043042,0.259547,12.528722,-1.644571,0.268328,1.739585,8.438826,-2.095644,1.427839,2.672775,5.162594,-2.156347,1.444416,1.748344,3.18573,-1.031283,-1.781716,2.187308,1.619321,-1.092092,-0.032106,1.638028,4.786666,-2.401365,-2.006281,-8.972385,0.019635,2.860763,2.49155,0.925093,2.247453,-4.218002,2.026834,1.973779,-0.83079,-0.225678,-2.590957,4.335666,-2.815487,1.039226,-3.125154,3.591564,-2.014411,0.11836,-1.710947,2.635789,-1.697191,0.726496,1.334912,2.621657,-4.852521,2.482876,-3.750345,3.726324,-4.451763,1.798701,-3.793977,4.116147,-4.654716,2.340771,-4.416332,3.621429,-3.021086,1.504162,-4.44288,1.841263,-5.124519,5.52141,-2.566392,-1.882152,-6.341811,1.936812,0.765421,3.496132,-3.524619,0.645563,-2.005207,4.07672,-1.091937,-0.502208,-3.000656,4.042647,0.986703,-0.506022,-1.492001,2.699136,-1.238329,0.239946,-1.732675,-2.134408,-3.641699,1.240596,-4.423547,3.479433,-9.547924,0.266544,0.935292,1.540233,-4.911768,3.513964,4.709053,1.759408,0.901854,-0.546656,-1.740755,2.424329,1.015565,-2.337799,-1.414372,-0.439713,-10.854659,-0.724887,-2.058877,0.578507,2.067843,2.284028,-3.973724,455.312073,-798.304016,874.849182,-94.547829,3.618179,2.107394,-1.599191,-1.085655
"stress24","L2",4.761906,2.368579,-9.973772,-2.455824,1.615134,1.28071,-3.694422,-1.966703,4.09829,5.642573,-3.256208,-3.500543,1.529836,2.984334,2.505473,0.046276,0.654885,2.773186,-2.398762,-1.178412,-2.868025,-1.332347,-3.355776,0.447574,-1.878189,-0.18622,-4.049877,1.455173,-1.154316,1.848201,-0.419227,0.917663,6.569415,3.804441,4.101497,1.396489,-1.403926,-1.098391,-1.932819,1.665174,-3.511281,-1.719303,-4.678469,1.640138,-3.61085,-4.008804,-4.859029,-0.353784,-2.445246,-2.170819,-2.704398,-0.531835,-0.777856,-1.36838,0.082805,1.122787,-2.385606,-3.647245,-0.664994,-2.036463,-3.165705,-4.016623,-1.346088,-1.177961,-3.765753,-5.607022,-1.98459,-1.059806,-3.940287,-5.883669,-4.886152,0.009048,-2.3907,-6.129602,-2.010358,0.172986,-0.326747,-0.208152,3.649276,0.54667,-3.311072,-6.179097,-4.067746,-0.378478,-4.365412,-3.852926,-5.342206,0.010632,-5.257183,-2.098798,-5.145964,1.74014,-4.361125,-4.137337,-4.003734,-0.279137,-3.960954,-2.716495,-3.189386,-1.521149,-2.671518,0.954163,1.1947,-0.514926,-3.638343,-2.930859,-2.007469,-1.958531,-4.021842,-2.026355,-3.699747,0.357025,-2.288045,-2.605876,-3.002678,-0.169402,-3.049318,0.175459,0.411904,-1.372092,-0.255157,0.489787,-7.895237,-2.933121,756.747437,-679.762634,695.169739,-131.532776,-2.080889,-1.198761,-2.583591,-0.647719
"stress25","L2",-1.634745,0.496132,-2.376707,-0.962976,-0.735736,-1.087135,-1.438644,-0.418281,-0.911597,-0.529741,0.480743,-0.499266,0.482373,-0.188555,1.669597,0.50214,0.165077,0.119157,-1.262832,-0.522093,-1.412473,-0.756383,-2.58082,-2.337162,0.185634,-0.565624,-2.515012,-0.933766,0.55021,0.574393,1.385708,1.803042,2.690799,2.701533,3.242456,3.540702,1.806458,1.329932,-0.86907,-0.125782,-0.804653,-0.83713,-4.20277,-1.277333,-0.476576,-2.089191,-4.189182,-1.267501,1.955135,0.254762,-1.970864,-0.448299,2.448142,1.012082,1.455876,1.832173,-0.114022,-0.286256,-0.196832,1.251775,-0.980628,-0.959239,-1.240127,0.449191,-2.854136,-1.142074,-2.29346,0.260987,-1.099802,-1.941038,-3.489817,-0.486048,-1.608894,-1.349055,-1.821232,-0.829496,0.749642,-0.456835,2.119624,1.819875,-0.762524,-1.137448,-2.516147,-0.712775,-1.07803,-2.567841,-4.825013,-1.565391,-1.283993,-1.831342,-4.590692,-2.572533,-1.582744,-0.725863,-3.146812,-1.300872,-0.378763,-0.588232,-1.261331,-1.371864,-2.039378,0.309833,-0.291957,-1.241887,-1.837657,0.084321,-1.50562,-1.355656,-1.98817,-0.724449,-2.150416,-2.488242,-1.535503,-0.49861,-2.250822,-3.011915,-2.824013,1.024388,-1.006578,-1.420841,-2.029375,0.717398,-3.0244,-2.328259,757.126099,-1023.993835,933.778442,-65.677437,-1.146813,-0.748232,-1.787359,-1.78686
"stress26","L2",-3.133857,-11.252694,3.730335,-9.493787,1.038525,-2.888399,2.551577,-1.053363,-0.656049,-0.114457,2.515407,-5.336214,0.597266,1.032342,2.176814,-2.748729,-0.02121,-0.285975,1.329188,-0.982074,1.663113,-2.159389,1.685666,0.13632,2.286479,0.31181,2.926385,1.164397,0.820112,0.816325,1.222967,0.852186,-1.858475,5.89076,0.318085,-1.352879,1.541003,1.131847,1.064273,-0.898701,1.30668,-0.43516,2.02915,0.571648,-0.195097,-0.622871,2.305677,-1.166507,1.198102,0.151543,1.097596,-1.095053,-0.487615,2.269463,0.069176,-0.252389,-1.810549,1.254484,0.75432,-1.024991,-3.080728,-0.500811,1.860242,-1.195865,-2.026529,0.36831,1.62593,-2.057213,-0.600877,-1.715801,1.279226,-1.736705,-1.226092,0.386946,1.298275,-0.564576,-2.891963,4.718241,-0.199319,-1.08258,0.96781,-1.198921,-0.351066,-1.467909,1.362499,-2.060626,1.144083,-0.794008,1.179706,-1.075194,2.106863,-1.131135,1.047189,-2.534703,0.784462,0.287988,1.765667,-0.249041,-0.402779,2.306207,3.062701,-0.700818,-1.404405,4.424871,3.316781,-2.94876,-0.704741,3.589851,1.347441,-2.608958,0.067381,0.753671,2.357798,-4.474228,-0.801281,4.325175,4.92227,-4.216918,-1.504668,4.538582,2.143981,-9.646857,2.312728,-1.930842,711.890503,-664.490356,689.091003,-261.56955,1.583478,-3.536333,-0.039589,0.81182
"stress27","L2",-18.343678,-12.832439,-34.07156,2.346129,-5.681418,-3.04627,1.73652,11.55502,-8.304941,6.184756,21.88035,26.637102,-0.799939,5.054147,21.517759,15.325071,-4.425581,6.386303,14.737086,14.28229,0.590766,-1.8951,-2.226131,3.666471,0.980647,-0.760475,2.39458,7.677439,-1.260621,3.620623,12.551811,7.934236,0.853909,5.395342,18.438747,4.284195,0.920963,0.469774,4.06988,4.787055,2.360305,-0.321017,-1.443596,1.63423,2.023183,-1.170183,-3.064394,-1.166585,2.320932,-0.240325,0.058537,1.978213,0.584394,0.886063,4.522977,1.673158,1.835394,-0.546164,2.094484,-0.536562,1.439549,-0.459258,1.779508,-0.998241,2.070184,0.01687,-0.256339,-2.783485,2.045744,0.040225,-4.362078,-2.314,2.876111,-0.265535,-2.343372,-3.017545,3.404124,3.82035,8.10682,-2.309904,2.35935,-1.513674,-6.813772,-3.356015,2.031638,-0.862768,-5.967262,-2.382825,2.1052,-1.142907,-5.051979,-2.108505,2.797378,-1.327572,-9.552041,-4.572738,3.087245,-2.390146,-8.969348,-6.301243,4.776846,-5.254021,-11.87792,-11.250989,3.301486,-4.99222,-12.562917,-9.784208,1.254867,-1.881295,-8.514421,-3.838323,-0.430208,-5.127772,-15.122303,-7.018632,4.43282,-10.47445,-24.345997,-17.210783,-14.348433,-8.787642,-31.574144,-0.455754,1498.420776,-174.421768,2478.979248,-552.37323,-1.419342,-3.071898,-8.848523,-0.658098
"stress3","L1",-2.843467,11.056314,-18.115168,-34.582314,-4.37348,3.466223,-7.960753,-13.646888,0.003445,2.569616,-9.781264,-17.208921,2.00861,-0.071881,-2.08437,-2.569887,-2.36289,1.302114,-4.646891,-8.673072,-4.224164,1.841032,-4.609333,-7.422985,-3.528544,2.27571,-3.030273,-3.96149,-0.189559,0.800262,-0.957538,-2.668889,7.659863,-3.22639,8.333298,12.855552,-2.133364,2.827058,-0.796959,-1.156277,-3.040219,2.510981,-2.718579,-0.952695,-1.814379,2.305654,-2.352245,0.984051,-2.621129,2.41764,-0.086039,0.808567,1.482424,2.110385,1.666593,2.893629,3.172032,0.661631,0.967247,6.656204,3.461019,-0.854803,1.452645,6.811278,4.664958,0.344606,1.202232,6.976295,-1.908748,1.02264,-1.597282,2.034183,0.205735,-0.988637,-0.340233,4.089957,4.061633,-4.287178,8.458474,16.534502,-3.723955,-0.242179,-0.951379,1.427273,-2.7232,1.141603,-2.664849,0.555574,-3.018515,0.636454,-3.851367,-2.005573,-2.931928,1.274067,-2.000726,-0.037015,-0.830468,-2.040002,0.998111,4.336743,2.885122,-2.005316,3.950313,8.713996,-1.931966,0.551229,0.080003,0.132742,-2.729897,0.892174,-2.733175,-3.865344,-2.452507,2.670939,-3.499932,-6.632214,0.431473,0.844146,2.279189,5.45577,-4.181567,9.192182,-14.280847,-26.864817,-184.162674,-243.161438,-1177.675537,2020.31604,-3.907164,2.504524,-5.597255,-9.796684
"stress3","L2",-1.300052,1.771444,0.258334,2.54096,-1.207612,1.513222,-0.500367,0.053576,2.021462,2.254995,2.222681,2.537366,3.700111,0.91056,2.450814,3.201883,0.025725,1.708079,-0.110069,1.760467,-2.263478,0.302054,-1.407678,-0.54792,-2.516471,-0.251617,-1.252701,0.419595,2.055811,1.295893,2.343762,2.572374,4.873744,-0.851567,1.180351,4.702147,-0.737894,-0.098307,-0.374319,2.020553,-1.973431,-2.216665,-0.432604,-2.601421,-2.818889,-5.790826,-0.289859,-3.669449,-1.284676,-3.080858,-0.339437,-0.649646,0.666542,-1.270637,-0.068255,1.358341,-0.508756,-3.59429,0.376946,-2.202301,-0.910005,-4.937541,0.09595,-3.659505,-1.976924,-5.36808,-0.418944,-4.747964,-3.116705,-5.527497,-1.72737,-5.297984,-1.44858,-3.651451,-1.463917,-4.979437,2.483707,-1.911808,1.477472,-1.42265,-2.492153,-2.930902,-1.791347,-5.381611,-3.584947,-3.832042,-2.425123,-3.853119,-3.143448,-1.68713,-2.081055,-3.207014,-3.200897,-1.055737,-3.247773,-3.393092,-0.797509,-0.740995,0.241217,-3.510592,1.528549,-0.191529,2.313682,-1.376506,-1.150568,0.221541,0.261642,-3.446907,-2.815496,-0.06418,-2.641945,-4.386805,-2.564387,-0.044477,-1.068413,-2.76261,0.038288,0.494686,1.608313,-2.922837,-1.173088,0.312713,-0.027739,0.33826,-246.525253,-435.187622,-1112.137329,1795.401123,-2.452484,0.921125,-0.885941,-1.093166
"stress4","L1",-3.943997,3.719015,1.028822,-3.060267,-1.781236,2.919154,1.608727,-1.641268,1.384571,1.29868,0.141936,-2.335629,-2.477645,-0.442027,-0.285475,-2.144975,-1.898212,2.392771,-0.285761,-1.617458,-0.805106,1.427087,0.470565,0.694668,-1.530059,0.308414,0.925341,2.712695,-0.893806,-0.985282,0.09908,-0.234743,3.855272,-4.746834,-1.011454,-2.648163,-1.482913,-0.773135,1.502569,-0.166571,-0.215212,-0.446305,1.490308,1.992652,0.926979,-0.654369,1.496507,2.645194,0.915171,-0.217574,1.672869,2.093355,0.488192,0.188964,2.799772,-0.625779,1.388832,-1.991997,2.809286,0.596474,1.420754,-1.999709,2.876158,0.545053,-0.53,-5.056576,0.394835,0.258629,0.11388,0.141542,0.169592,3.633047,-1.136697,0.289434,0.736308,-0.591086,3.739943,-4.694716,-3.661392,-1.5331,0.608087,1.198113,-0.320401,1.439349,0.297255,0.939516,0.497575,3.036889,-0.46097,-0.336724,1.241385,2.017356,-1.775993,1.987414,-0.648115,0.694783,3.964686,0.402487,-2.394225,1.686394,0.901137,-0.713796,-0.670273,-3.152313,-2.335316,1.838803,-0.085928,-2.790195,-0.8992,1.518996,0.747188,1.472831,-3.967825,2.458346,2.791467,-0.216797,-5.97766,5.692759,1.174978,-3.288664,-4.246248,4.861103,0.454508,-5.56327,-229.057236,-440.00705,-1513.268677,2498.147949,-2.531735,3.147187,1.557614,1.393754
"stress4","L2",-2.080266,0.734811,-2.431283,-0.323167,0.996143,0.995503,-2.039856,-3.34871,-0.685205,1.238058,-1.997995,0.220881,-1.884688,-0.814025,-0.557307,3.372853,-0.606621,0.780576,-2.519941,-0.27578,3.247347,1.760462,-4.128829,-4.363885,1.954352,0.636643,-1.330655,-1.857401,-0.451658,-0.937393,-1.221276,1.553666,-2.640202,-4.074758,4.254435,6.251884,1.489095,-0.187884,-1.369915,0.323553,3.105449,0.378543,-0.732369,-3.196234,2.82505,0.176126,1.150524,-3.079051,2.769449,0.575185,-0.25331,-0.962267,-0.257317,-1.74011,-1.337479,1.193567,-0.22287,0.734019,-0.124355,0.827027,0.145343,-0.664445,1.266423,0.420995,0.094652,-0.470958,1.156273,0.168473,2.575458,-0.926185,-0.053443,-2.379444,0.433565,-0.477342,0.466367,-0.646206,-1.324848,-2.430193,3.240794,2.708973,2.400815,-0.701361,0.179843,-3.257833,2.976251,0.25838,0.637258,-4.829912,2.671487,0.295347,-2.196375,-5.086951,2.106598,-0.075181,-1.645499,-5.343182,2.552827,-0.233364,0.816727,-1.467938,0.339983,0.078359,4.370636,0.602861,-0.302581,0.679338,-1.74744,-3.072187,1.589005,2.744031,-2.276825,-4.702559,1.229753,1.39427,-3.278608,-4.061924,-0.074663,1.841598,-2.255551,-1.83786,-1.204449,2.031268,-3.437939,-3.602606,-326.212555,-564.679199,-1325.384399,1557.244263,1.321682,2.168317,-2.498411,-2.986953
"stress5","L2",-1.899635,-12.436283,-13.052992,0.498571,0.420259,1.776777,0.639109,-1.309393,2.893515,2.836235,3.180969,0.334698,2.592487,2.721102,2.748401,-2.784931,2.889614,2.983389,1.481968,0.18657,-0.850276,1.904553,-1.054255,-0.757363,1.742936,3.001228,-1.247053,1.270144,2.395133,3.621007,2.583924,-1.200637,4.887723,-1.387112,3.281438,2.88207,1.375126,2.579255,-0.866444,0.732439,0.151187,0.190911,-5.131281,1.857723,-1.747017,-2.387254,-5.925044,0.620333,0.916562,0.176827,-3.723767,3.696437,1.822951,1.41219,-0.687915,2.404772,0.776081,-2.576449,-3.327434,6.284601,-1.785424,-1.697429,-4.624727,2.927269,-2.254646,-3.414012,-3.907563,1.8101,-3.239763,-3.043097,-4.993739,-1.341298,-3.087459,-2.342479,-2.551472,-0.591999,2.157552,-4.021988,1.809556,0.575991,-3.293899,-1.246805,-3.500689,-2.805293,-2.510505,-2.379403,-4.942204,-1.179077,-1.949852,0.580931,-2.215231,-1.850974,-4.727229,-1.48373,-3.172043,-2.073503,-1.675181,-0.582183,-1.792523,-1.037545,-0.714318,-0.736375,0.341619,0.257567,-3.058425,-0.852256,-2.62921,-2.415728,-3.748906,1.392061,-2.778353,-2.733465,-3.888044,0.638325,-2.279572,-2.849496,-3.342594,-0.759619,-1.527481,-0.811925,-2.838181,1.792544,-3.835858,1.671898,-139.405579,-449.975739,-958.986145,1447.002319,-2.348424,1.803034,-1.696998,-1.152687
"stress6","L2",1.358404,-1.959885,2.5116,0.392479,1.342963,-0.216464,2.098789,1.865843,1.216998,2.155454,0.700004,3.081189,0.546783,2.105956,0.205813,2.326301,1.33502,1.347666,0.913921,2.39187,1.715923,-3.402548,1.99313,-0.417279,1.581157,-0.603566,1.467489,-0.010614,1.782624,2.279562,-0.772745,2.259353,-1.953412,6.389948,-0.39665,-0.947999,1.286007,0.848423,0.666456,-0.15253,0.855378,-4.529746,2.15423,-2.752372,0.289433,-5.935729,2.941515,-3.342795,0.761561,-1.906701,2.472675,-2.660489,-0.62596,1.659046,1.933136,-1.239039,-1.075627,-1.111316,2.779914,-4.833563,-1.218906,-2.252715,2.592633,-4.888746,-0.820634,-4.887119,1.972086,-4.515264,0.797143,-5.63249,1.334475,-3.097061,-0.581316,-1.496496,-0.338202,-1.699744,-2.117947,6.156539,-3.949295,-1.750018,0.980898,-3.656707,-0.878533,-0.833349,0.926195,-6.602829,1.909861,-3.107335,0.695752,-5.372639,2.235062,-2.673014,0.930425,-6.173654,0.341216,-1.758422,0.290135,-1.829901,-2.496831,1.787986,0.777835,-0.931899,-3.265117,2.401688,0.741063,-4.54405,-2.389683,0.953183,1.470807,-5.096332,1.052314,-2.308678,0.839375,-5.554591,-1.340032,-0.582345,0.01016,-4.019135,-3.60623,1.838951,-0.035833,-3.525959,-0.606814,-1.498921,1105.271606,-553.290588,1562.961182,-444.775574,1.35712,-4.182163,1.448648,0.899339
"stress7","L2",4.034978,-3.643173,-4.001539,-8.560162,4.072251,-4.141812,-8.295539,-3.276736,-6.503243,3.544719,-5.823707,4.645834,5.675139,-3.718543,5.158158,-2.818507,-8.714024,6.425622,-14.231873,6.30594,4.017299,-5.047492,-5.781092,-3.58917,5.714953,-6.010862,-8.172336,-4.080267,-10.023163,5.174423,-4.540761,8.770624,-3.838642,11.294779,4.950709,7.707798,2.534688,-2.940371,-5.465598,-0.97498,2.735291,-4.186171,-5.071758,-4.40493,0.900661,-2.827678,-2.115849,-5.204895,0.89354,-2.328595,-3.538626,-3.377792,0.486824,-1.082508,-0.955911,0.021123,0.076877,-1.728568,0.536966,-2.677724,0.754588,-1.503734,-0.376607,-2.675944,-0.258596,-1.847322,0.762808,-3.268717,0.948206,-3.037279,-0.450578,-4.764456,0.272894,-3.416465,1.598814,-3.639736,-7.379411,3.112323,7.625877,4.622073,1.231512,-3.210685,-1.035407,-5.066359,2.259137,-4.48733,-2.544589,-6.372886,2.359931,-5.326665,-2.43196,-4.937308,4.589974,-6.534874,-3.350158,-7.210128,-16.144796,7.122695,-3.832301,4.004426,3.911582,-3.987686,5.33216,-4.68043,-7.595094,3.701562,-8.184852,-1.686888,3.692484,-7.129691,-0.886267,-5.328799,3.583517,-4.801466,-4.266692,-4.92005,-4.163056,2.133768,-3.761863,-0.187728,3.173901,-5.043518,-2.152023,-7.672669,995.352356,-714.865417,1476.961792,-508.592712,3.739353,-4.802369,-4.192198,-4.109957
"stress8","L2",-3.002828,0.507704,-0.054615,3.23885,-0.981145,-0.114488,0.72795,2.075455,-3.640325,0.600511,1.44854,3.689579,-0.066805,1.15498,1.181197,-2.064243,1.097759,0.681899,2.25402,1.383552,0.257649,-0.934734,0.596535,2.146937,1.136577,-0.286942,-1.076461,3.093908,1.406982,-0.517713,-0.726547,1.517897,3.000924,3.981481,-3.374643,-2.510042,1.234762,1.554451,-1.282468,2.16982,0.746554,0.237901,-1.815999,1.924513,0.293271,-1.187848,-2.422605,3.114938,1.415632,0.789569,-2.365426,2.92215,0.61899,2.53136,-1.264147,0.390254,-0.346473,2.899865,-1.235234,3.221614,-0.146087,2.482823,-2.904799,4.220003,-0.003435,1.92551,-0.306952,2.381229,-0.74591,-1.221166,-2.070741,4.312044,0.471398,-0.154172,-0.73281,1.647908,4.134737,-2.711266,-0.422932,1.003407,0.914317,-1.575655,-0.827556,2.876516,-0.471386,-1.846403,-2.393244,1.690814,0.215279,-1.835509,-0.986337,2.223659,0.389421,-1.39203,0.149459,1.656106,0.509092,-0.668108,1.797413,0.776102,0.111345,1.159176,4.975974,3.189247,0.155204,-0.519893,2.122572,1.310613,-0.117767,-0.493663,-0.053743,3.139893,-1.352561,1.180804,2.073043,1.49003,-0.508024,0.230827,4.994614,-0.89382,-2.461533,0.01199,2.410813,1.853479,986.510437,-694.556091,974.882813,-346.275909,-2.378555,-0.423406,1.265856,0.502211
"stress9","L2",0.307427,-0.955649,2.275755,-0.013157,0.835891,-0.769142,0.459374,-0.961636,1.326347,-1.907304,2.065042,0.882595,0.556558,-0.502708,2.027863,2.100559,1.131961,0.981486,0.39814,-1.350692,-0.152299,-0.855024,1.564154,-3.959872,1.155037,1.280693,2.832546,-3.014662,1.303241,1.662023,1.961616,0.082623,0.350959,-2.382474,7.170074,5.860132,0.681231,0.414698,3.16504,-2.296095,-0.092905,-0.831557,4.811075,-4.207177,-0.405243,-2.115043,4.326587,-2.895712,-0.168199,-1.226607,5.237471,-1.983762,0.478425,-1.388193,5.290325,-0.611463,0.2271,-2.837894,5.29692,-0.031825,0.55258,-2.721929,2.525291,-0.936887,-0.397886,-4.063124,2.954871,1.065282,-1.578424,-2.134074,3.070688,-1.00004,-0.487901,-3.294779,0.381559,1.521858,0.053611,-5.583932,5.549089,9.469666,-1.836619,-2.429235,0.399151,-0.510029,-1.670027,-2.522682,3.79191,-1.766705,-0.828128,-1.15525,3.302135,-4.261718,-1.826615,-2.276015,1.08466,-2.053945,-0.16267,-1.21852,-0.933264,2.291507,-0.861931,-0.863788,-1.020406,4.006386,-1.507969,-0.52683,-1.415029,1.255858,-1.93826,-1.756592,1.526897,-1.516619,-1.183415,-0.35741,-0.17413,-1.424966,-1.729807,-0.865974,-1.406944,3.237815,0.644238,0.813044,1.123845,-0.88576,894.575256,-775.802002,1033.465088,-342.47345,-0.134858,2.65547,-4.239723,-5.109935
