Participant_ID,L1_L2,area,time_period,Fp1-Average_suffix_stressed_mismatch,Fp1-Average_suffix_stressed_match,Fp1-Average_suffix_unstressed_mismatch,Fp1-Average_suffix_unstressed_match,F3-Average_suffix_stressed_mismatch,F3-Average_suffix_stressed_match,F3-Average_suffix_unstressed_mismatch,F3-Average_suffix_unstressed_match,F7-Average_suffix_stressed_mismatch,F7-Average_suffix_stressed_match,F7-Average_suffix_unstressed_mismatch,F7-Average_suffix_unstressed_match,FT9-Average_suffix_stressed_mismatch,FT9-Average_suffix_stressed_match,FT9-Average_suffix_unstressed_mismatch,FT9-Average_suffix_unstressed_match,FC5-Average_suffix_stressed_mismatch,FC5-Average_suffix_stressed_match,FC5-Average_suffix_unstressed_mismatch,FC5-Average_suffix_unstressed_match,FC1-Average_suffix_stressed_mismatch,FC1-Average_suffix_stressed_match,FC1-Average_suffix_unstressed_mismatch,FC1-Average_suffix_unstressed_match,C3-Average_suffix_stressed_mismatch,C3-Average_suffix_stressed_match,C3-Average_suffix_unstressed_mismatch,C3-Average_suffix_unstressed_match,T7-Average_suffix_stressed_mismatch,T7-Average_suffix_stressed_match,T7-Average_suffix_unstressed_mismatch,T7-Average_suffix_unstressed_match,TP9-Average_suffix_stressed_mismatch,TP9-Average_suffix_stressed_match,TP9-Average_suffix_unstressed_mismatch,TP9-Average_suffix_unstressed_match,CP5-Average_suffix_stressed_mismatch,CP5-Average_suffix_stressed_match,CP5-Average_suffix_unstressed_mismatch,CP5-Average_suffix_unstressed_match,CP1-Average_suffix_stressed_mismatch,CP1-Average_suffix_stressed_match,CP1-Average_suffix_unstressed_mismatch,CP1-Average_suffix_unstressed_match,Pz-Average_suffix_stressed_mismatch,Pz-Average_suffix_stressed_match,Pz-Average_suffix_unstressed_mismatch,Pz-Average_suffix_unstressed_match,P3-Average_suffix_stressed_mismatch,P3-Average_suffix_stressed_match,P3-Average_suffix_unstressed_mismatch,P3-Average_suffix_unstressed_match,P7-Average_suffix_stressed_mismatch,P7-Average_suffix_stressed_match,P7-Average_suffix_unstressed_mismatch,P7-Average_suffix_unstressed_match,O1-Average_suffix_stressed_mismatch,O1-Average_suffix_stressed_match,O1-Average_suffix_unstressed_mismatch,O1-Average_suffix_unstressed_match,Oz-Average_suffix_stressed_mismatch,Oz-Average_suffix_stressed_match,Oz-Average_suffix_unstressed_mismatch,Oz-Average_suffix_unstressed_match,O2-Average_suffix_stressed_mismatch,O2-Average_suffix_stressed_match,O2-Average_suffix_unstressed_mismatch,O2-Average_suffix_unstressed_match,P4-Average_suffix_stressed_mismatch,P4-Average_suffix_stressed_match,P4-Average_suffix_unstressed_mismatch,P4-Average_suffix_unstressed_match,P8-Average_suffix_stressed_mismatch,P8-Average_suffix_stressed_match,P8-Average_suffix_unstressed_mismatch,P8-Average_suffix_unstressed_match,TP10-Average_suffix_stressed_mismatch,TP10-Average_suffix_stressed_match,TP10-Average_suffix_unstressed_mismatch,TP10-Average_suffix_unstressed_match,CP6-Average_suffix_stressed_mismatch,CP6-Average_suffix_stressed_match,CP6-Average_suffix_unstressed_mismatch,CP6-Average_suffix_unstressed_match,CP2-Average_suffix_stressed_mismatch,CP2-Average_suffix_stressed_match,CP2-Average_suffix_unstressed_mismatch,CP2-Average_suffix_unstressed_match,Cz-Average_suffix_stressed_mismatch,Cz-Average_suffix_stressed_match,Cz-Average_suffix_unstressed_mismatch,Cz-Average_suffix_unstressed_match,C4-Average_suffix_stressed_mismatch,C4-Average_suffix_stressed_match,C4-Average_suffix_unstressed_mismatch,C4-Average_suffix_unstressed_match,T8-Average_suffix_stressed_mismatch,T8-Average_suffix_stressed_match,T8-Average_suffix_unstressed_mismatch,T8-Average_suffix_unstressed_match,FT10-Average_suffix_stressed_mismatch,FT10-Average_suffix_stressed_match,FT10-Average_suffix_unstressed_mismatch,FT10-Average_suffix_unstressed_match,FC6-Average_suffix_stressed_mismatch,FC6-Average_suffix_stressed_match,FC6-Average_suffix_unstressed_mismatch,FC6-Average_suffix_unstressed_match,FC2-Average_suffix_stressed_mismatch,FC2-Average_suffix_stressed_match,FC2-Average_suffix_unstressed_mismatch,FC2-Average_suffix_unstressed_match,F4-Average_suffix_stressed_mismatch,F4-Average_suffix_stressed_match,F4-Average_suffix_unstressed_mismatch,F4-Average_suffix_unstressed_match,F8-Average_suffix_stressed_mismatch,F8-Average_suffix_stressed_match,F8-Average_suffix_unstressed_mismatch,F8-Average_suffix_unstressed_match,Fp2-Average_suffix_stressed_mismatch,Fp2-Average_suffix_stressed_match,Fp2-Average_suffix_unstressed_mismatch,Fp2-Average_suffix_unstressed_match,Audio-Average_suffix_stressed_mismatch,Audio-Average_suffix_stressed_match,Audio-Average_suffix_unstressed_mismatch,Audio-Average_suffix_unstressed_match,Fz-Average_suffix_stressed_mismatch,Fz-Average_suffix_stressed_match,Fz-Average_suffix_unstressed_mismatch,Fz-Average_suffix_unstressed_match
stress1,L1,suffix,235_415,-4.057705,8.496333,-0.596164,-2.60797,-3.05305,5.028655,-1.544469,-0.858199,-2.336015,-6.559369,2.017292,3.838986,3.308012,2.453846,2.607498,4.379097,-0.731209,3.599027,-0.03259,-1.479799,-2.087022,1.608822,-1.039499,-2.007085,-3.069727,3.508802,-0.890157,-0.34552,-1.004,2.748339,-7.387422,0.382872,4.137768,-9.649731,6.32573,0.800423,-1.43492,7.278809,-1.147939,0.750304,-2.640266,0.373007,1.567722,-0.515595,-2.592591,-0.712931,2.219094,0.449931,-2.167429,1.120068,0.83985,1.424542,2.605889,5.965335,4.64802,-0.779276,0.189281,2.632268,7.60197,2.78402,-2.597601,2.065328,3.114661,1.320049,-1.763437,1.735362,1.150152,-0.400841,-1.453622,1.788244,3.241359,0.338175,-0.064022,2.864615,-0.114554,1.148766,6.893549,-11.852351,-2.945832,4.072433,-1.912636,7.365071,-2.062136,0.517987,-2.421573,1.561865,0.839522,0.48069,-3.776006,1.7041519999999999,0.862119,-1.021155,-2.093299,3.97423,1.407563,-0.043987,-2.904392,7.904405,-9.297478,1.172093,-2.437745,19.99151,-6.819193,2.499993,-1.32108,12.433846,-3.950104,-0.603047,-2.570086,4.415342,-0.685282,-0.79621,-3.515986,10.754895,-3.128507,0.078651,-0.636972,14.346231,-26.308233,0.936785,-8.809065,7.037287,-7.748031,-1.32706,-1322.099243,-1318.856079,-2637.652832,-2035.197754,-3.677105,7.167357,-1.126635,-1.624286
stress1,L2,suffix,235_415,6.69777,-4.848664,2.543671,-1.413368,4.582184,-1.273279,1.870483,-0.150012,3.271774,-1.558962,1.485716,1.266142,0.583265,-2.08724,-0.017842,0.752252,3.076111,-2.46431,1.423502,0.410594,3.588725,-1.592228,1.0495,-0.051198,3.027182,-2.293224,2.00149,0.165435,0.126638,-2.753349,0.293032,-0.399651,-4.714023,1.142877,-1.40559,0.064358,0.986595,-2.325949,2.740427,0.352376,2.016271,-2.89387,1.236918,-0.90962,0.377274,-2.350343,1.951274,-2.759816,2.28724,-3.647567,3.082858,-1.278968,-0.455137,-3.96654,1.421152,0.503492,-1.237513,-1.230179,1.732452,-0.159112,-0.754696,-0.983839,2.393866,-0.967048,-0.920914,-1.589242,0.800377,-1.204223,-1.817084,-2.10555,-0.221807,-1.460588,-2.815766,-2.271342,0.893592,-1.613862,-6.463187,1.911714,-1.662066,-0.188498,-1.489508,-0.955778,-1.613924,-1.134737,-0.03322,-1.993661,-0.982256,-1.202652,2.1158960000000002,-2.828046,-0.150673,0.3876,2.419882,-1.203415,-1.533558,-1.776328,-2.815426,0.811376,-0.763282,-0.990929,-4.341923,2.326951,-1.958672,0.720138,-0.05675,1.495348,-0.945398,-0.243559,2.367261,-0.776199,-0.281968,1.334627,2.093329,0.356595,0.489239,0.055584,-2.731326,2.44435,-1.887657,0.743624,4.540353,-2.196434,2.296773,-0.56293,-666.647827,-700.197693,-2149.162109,-2062.962158,3.725737,-1.018197,1.022552,0.041381
stress10,L2,suffix,235_415,-9.107365,3.754821,2.825239,-10.07273,-4.421986,-1.46479,-4.325788,-9.921936,-0.155805,-1.397064,-15.235368,-14.487354,2.327479,-1.143501,-11.191446,-5.659394,-1.541897,-1.327878,-8.957507,-10.292788,-3.72342,-2.095692,-2.413288,-8.008381,-1.208329,-0.3127,-5.308406,-6.770819,0.044053,-0.079224,-7.831945,-6.139686,9.811121,2.872128,-3.933884,5.090059,1.373549,0.878041,-5.361505,-3.521453,-0.872522,0.337169,-4.415856,-4.174006,1.475155,0.455668,-2.651157,-0.041707,2.337386,1.703898,-2.611056,-1.556911,4.312897,1.209973,-2.735457,0.332297,3.942026,2.172402,-2.538538,0.426495,4.092673,0.662329,-0.749663,3.173641,2.409879,0.057742,0.939152,3.528128,0.637439,1.365048,-1.550954,1.709826,2.278615,-0.700839,1.598975,3.374162,9.286157,2.641302,3.907637,11.350642,-0.47901,-0.641073,0.01177,1.252436,-0.20431,-1.205222,-2.343497,-1.169311,-2.443975,-1.500044,-2.945374,-5.03818,-0.709004,-1.334783,-0.307108,-0.634627,-0.699111,-2.136739,1.711796,5.240536,0.534363,-3.629773,3.560964,8.381206,-2.862223,-2.4882,2.424006,3.876508,-4.46523,-2.461259,-0.94444,-3.266702,-5.707974,-1.91701,2.576545,-1.345675,-2.441143,-3.13782,7.888023,8.852503,-10.405415,2.006147,7.996459,-3.049211,-2899.493408,-1689.981934,-2583.622314,-1583.376953,-6.365759,-1.837809,0.008748,-5.480233
stress11,L2,suffix,235_415,3.495394,-13.152096,-1.094728,-10.570638,-4.564968,-5.145917,2.977425,-2.766716,-13.211950999999999,-22.34527,-2.064556,-6.555704,-11.561697,-11.58383,-1.049729,0.002226,-4.44467,-7.348065,1.457599,-1.499939,1.016249,-0.581794,0.823052,-0.059133,-1.007351,-1.950215,0.774601,0.693535,-6.173317,-7.455749,-2.4565,-2.189881,-10.593468,-5.589162,-0.628255,-0.487595,-2.490065,-3.114185,1.298202,-0.22456,2.215254,0.674008,0.69526,-1.439343,0.013277,2.142675,0.349267,-3.331874,0.646646,-0.11936,1.976119,-0.30758,-3.12736,-3.512013,0.693482,0.508182,1.644192,2.912636,2.460909,-1.314124,0.412129,2.427546,1.376171,-1.997897,2.145984,3.090056,2.782253,-2.24028,3.499838,2.52544,-1.076341,-1.198079,4.909385,4.825199,2.538865,-0.072349,2.529065,1.121332,-0.350344,0.799337,5.590286,4.776991,-1.095441,0.238093,2.933243,3.379502,0.181467,-0.114208,2.523095,2.51051,0.817111,-0.245647,6.676757,4.42077,-2.615064,-0.541009,5.997272,6.328955,-1.467501,1.544093,13.312413,13.149541,-1.471574,8.518202,11.306182,10.241006,-0.407244,2.676446,3.941728,4.004702,-1.716401,-0.658956,10.860713,9.213232,-3.43727,1.92258,19.260399,15.488544,1.593939,6.134516,12.856661,-19.12184,-7.366641,-14.388777,-3008.738281,-1763.234253,-2682.685547,-1639.429688,2.688137,1.489279,0.3262,-0.103915
stress12,L2,suffix,235_415,0.399803,-2.22753,-0.034333,0.312127,0.89116,-1.444638,2.039068,0.511951,0.09979,0.803157,2.228186,1.129876,2.622148,3.095793,-0.890619,0.569524,1.006777,-1.096077,1.320749,1.316083,-0.629423,-1.666363,1.822917,0.272092,0.74758,-0.48656,2.172941,0.380063,0.116094,2.102185,1.573578,2.545674,-0.270335,5.741189,0.999143,-1.630056,-1.497673,0.706459,2.720621,0.470376,0.270649,-1.256072,1.422957,0.91769,0.613259,-1.925004,1.7326,-1.190189,1.057426,0.313236,2.370941,0.851922,0.260764,0.807458,1.457275,0.710369,0.554899,1.271817,2.72921,-1.513676,0.298543,-1.390126,-0.067389,-0.74638,-0.041762,-1.965751,-0.562846,-0.504734,-0.165629,-3.735657,0.562623,-2.537969,-0.58583,-3.587818,-0.871699,0.426423,1.213183,2.288454,-1.285143,0.861285,-0.842035,-4.374626,-0.544954,-1.399555,0.547344,-4.054674,0.900977,-0.871223,-0.204307,-1.509868,1.353333,0.163636,-1.079625,-2.821021,0.28102,-1.449732,0.535414,-3.065409,0.308304,-1.436374,1.158143,-0.334603,-1.569166,-1.471485,0.172943,-2.368369,-1.079985,-0.223307,-0.130387,-3.260617,0.143892,-0.335859,-2.422733,1.944175,0.275384,-1.598413,3.675308,-4.302962,-0.058209,0.619839,1.29397,-2.30109,-0.451239,0.745021,-1895.27417,-1789.007324,-2115.834717,-1487.197144,-0.314283,-2.676548,0.095333,0.256258
stress13,L2,suffix,235_415,0.047541,0.275107,-1.95291,-0.493746,-0.8175,-0.337664,0.979433,1.328547,-5.858187,0.059054,-0.128054,-0.391994,1.032233,0.253059,-4.361016,-2.858258,-0.082053,-1.553923,1.207428,1.16177,-0.815417,-3.626204,2.024382,1.52591,-1.236881,-2.913455,3.437822,3.407791,-1.678921,-0.366097,0.852289,0.944497,0.198589,4.515889,-3.68951,-0.20475,-1.103035,-0.347766,2.483105,3.539126,-2.704543,-4.280539,2.662704,3.637379,-3.403759,-4.494269,1.88209,3.937168,-1.29581,-3.315394,3.172213,4.467325,0.561617,0.871291,2.266384,2.917348,-0.774552,-2.081919,0.957579,4.45474,-1.946457,-4.301431,-0.786728,4.376662,-1.703671,-2.992857,-0.601976,3.930947,-2.710424,-4.900636,0.44223,3.334255,-2.880816,-0.541911,-0.845658,3.620259,0.35986,4.421135,-1.85486,-1.561434,-3.631179,-3.522563,0.458216,3.992172,-3.703101,-4.242451,1.858226,2.903829,-2.299682,-3.794204,1.870455,1.637226,-3.029765,-3.186058,0.246421,0.700397,-1.935892,-1.472035,0.54851,-0.275037,0.591921,0.846128,-1.442584,-5.03644,-1.39426,-2.359376,3.396099,-1.452303,-1.875386,-4.048964,3.624653,1.340349,2.193225,0.346831,2.003628,-0.900486,1.26485,-0.839725,6.177465,-2.236121,0.356798,-0.873892,-0.600271,-0.74723,-2982.057373,-1751.041138,-2145.336426,-1425.466431,-0.18615,-2.979008,1.848123,0.588728
stress14,L2,suffix,235_415,-5.241997,2.833214,-3.546973,-0.922603,-6.179922,2.958269,-2.849097,1.107755,-11.838189,3.038696,-2.7017,8.961733,-7.680334,-0.395396,-0.950588,9.256481,-6.932232,1.379475,-2.756537,2.579996,-3.969418,3.062191,-1.03027,-2.088698,-5.100804,1.089541,-0.144654,-0.019573,-6.115346,-0.02477,0.160884,3.834597,-2.067997,-4.829961,3.948754,6.39747,-4.599148,-1.370233,-0.356388,0.460543,-2.505505,-2.331523,2.527985,-0.961927,-1.390479,-3.921746,4.574544,-0.546918,-2.575669,-3.243809,3.281323,-0.065651,-3.971951,-3.436418,0.907757,1.57197,-3.24296,-5.212375,2.793334,0.59261,-1.783605,-4.822098,3.023042,0.947491,-1.110701,-5.705496,0.926245,1.269347,-1.278543,-4.097443,3.061826,-1.592945,-0.724407,-4.108735,2.14433,-0.53347,3.855659,-7.729913,6.009436,2.093171,1.140915,-2.492199,-0.3677,-2.542807,-1.40666,-2.216989,2.830628,-1.220061,-1.102255,0.48818,2.721529,-0.906255,1.626786,0.510327,2.245775,-3.07983,1.27149,-3.560219,0.937446,-0.727262,3.894748,-1.557699,2.861616,-2.641136,2.659572,1.3697,0.231905,-5.342749,-0.072168,2.617877,-0.49181,-2.918811,1.466681,2.966777,-2.033206,-5.190521,5.75668,2.05847,0.531035,-7.91853,0.034866,4.121088,-4.993941,-7.198464,-3123.742432,-1757.091675,-1568.03772,-1448.154419,-0.59588699999999994,4.186624,-3.319398,-2.830214
stress15,L2,suffix,235_415,-3.515492,-1.160088,-5.824376,1.444786,-1.794338,-0.199352,-2.07197,5.055994,-1.009235,4.080607,-1.381703,14.526405,1.143666,4.914347,1.152569,11.172801,-0.8878,1.716212,-1.455494,6.944732,-2.401109,-0.599957,-3.119955,2.700802,-2.533419,-0.034692,-2.979084,4.381959,-1.368429,2.704979,-2.439082,4.331464,1.299069,2.059562,3.64057,0.727491,-1.527619,0.417678,-2.080056,1.711875,-2.908225,-1.932174,-3.837061,3.065875,-2.99399,-2.033627,-3.46806,2.381629,-1.490773,-1.056967,-1.946023,0.964681,-1.943681,-0.659517,-1.082591,0.177806,-1.752976,-0.853759,1.336527,0.334816,-0.701994,-1.198438,2.146993,1.254359,-0.365343,-1.614062,1.742062,-0.26022,-2.455628,-2.369912,-1.148415,0.170552,-0.187389,-1.185378,0.065912,-1.185059,3.153463,0.280424,10.031186,-4.600755,-2.145885,-1.343406,-2.21782,-3.097465,-1.488419,-1.114606,-3.585622,1.850982,-4.120218,-2.502808,-4.521493,1.506346,-3.019201,-0.709531,-2.47642,-1.747452,0.519996,-0.231793,-2.008235,-6.454644,2.012292,1.814432,-0.661755,-7.869972,-1.470734,0.057737,-2.079495,-6.697194,-2.317096,-1.875839,-2.170223,0.200665,-1.830526,-1.682573,-1.966493,-2.79279,1.610902,0.610321,-2.219268,-10.723839,-0.620006,-6.24553,-6.422489,1.301275,-2976.00708,-1764.550903,-1892.879395,-1709.280884,-1.484177,-0.779994,-4.557251,1.291088
stress16,L2,suffix,235_415,-30.476444,-12.954508,-13.163037,-21.449211,-10.553809,-1.433442,-4.744034,-7.5596,-8.497321,-1.820008,-4.066537,-2.988958,-0.79552,-0.78806,-0.66236,2.38484,-4.953715,-1.428263,-2.671175,-2.591659,-2.843664,0.638902,-2.752016,-2.910537,-1.763214,-0.242334,-2.464064,-0.755086,-0.909371,-2.694782,0.565353,0.340947,9.914382,0.205491,5.810752,7.117657,0.110724,-0.29684,-1.880785,-0.487774,-1.241796,0.71716,-0.347204,-0.882898,-0.683397,0.044037,-0.303169,1.167377,0.259745,-0.020226,-1.1198379999999999,-0.943897,2.423788,0.422609,-0.142175,0.345008,1.7022,1.073085,-0.004349,0.021683,2.615391,1.635541,0.400984,0.405384,0.8272,1.135559,-1.908894,-1.442023,0.512683,-1.539087,0.095321,-0.370091,1.303071,-1.020741,0.591775,-0.31025,8.560099,-1.126111,6.462891,5.616623,0.47558,-1.929336,0.80947,1.13305,-0.970931,-0.961478,-0.497456,0.662215,-0.86392,0.734337,-0.815022,-1.311887,-0.675382,-0.277512,0.408675,0.94789,0.357017,0.176425,1.424451,2.50016,0.34788,0.29917,0.640226,4.493778,-1.588589,-0.232176,-0.180772,1.470915,-2.673918,0.646174,-2.198063,-2.516671,-6.231314,-0.666554,-2.641852,-3.368573,-4.922219,-1.098709,-2.274612,0.612356,-21.031155,-8.02422,-11.151332,-13.219436,-3061.762939,-1783.157471,-2364.802246,-1539.104248,-6.158162,0.306874,-4.091217,-4.244762
stress17,L2,suffix,235_415,-3.124565,-2.776796,-2.725877,2.744518,-3.059227,-1.416679,-5.061737,-1.057124,-1.559076,-0.339559,-5.841096,-0.571406,-0.851539,1.398058,-0.437634,2.123795,-2.133531,-0.345199,-4.861502,-0.825038,-2.75033,-2.363767,-3.990631,-2.537301,-1.660832,-3.423422,-2.465529,-1.630669,-0.976645,0.757015,-2.115279,0.244466,3.291298,4.310375,2.953807,2.22893,0.22486,-0.137056,-1.839812,-0.708806,-0.26742,-3.843788,-2.047301,-3.051809,-1.126601,-3.72128,0.185127,-2.951692,0.882486,-3.470728,0.874406,-1.130018,1.385286,0.352503,0.184353,0.845788,1.500921,-2.768176,3.142395,-0.570865,1.556921,-2.785325,3.134999,-0.600429,1.549868,-2.413222,3.35953,-1.189549,1.221486,-8.526769,1.749741,2.159371,2.393596,-1.694302,2.513805,-1.447959,6.067021,3.070071,6.286189,1.208914,0.388102,-1.666521,1.429699,-0.850715,-1.306097,-3.974225,-1.066479,-3.11646,-3.010147,-4.893901,-3.696167,-3.013757,-0.502127,-2.674325,-1.185694,-1.319046,0.567986,0.216328,1.900705,0.68808,1.026167,2.192201,7.18468,2.635872,-0.90024,-1.751272,1.459398,-1.611231,-2.636942,-4.704773,-0.679104,-1.862277,-2.483221,-2.187401,-0.802931,-0.907297,-1.332781,-0.653815,7.009653,1.0337,-2.882975,-1.022783,1.914033,2.694249,-2717.427979,-1478.310913,-2092.933594,-1544.103882,-3.119441,-2.460149,-3.079999,-1.145948
stress18,L2,suffix,235_415,1.355316,1.549769,0.194359,0.296819,0.616135,0.002012,0.418276,-4.405631,1.238786,1.422419,-0.108698,-0.75538400000000006,0.785527,0.790438,0.332413,1.793954,1.558819,0.615436,0.395311,-2.09086,1.472076,-0.258403,1.644728,-3.433386,1.569183,-0.882623,1.710143,-3.452248,1.542107,-0.20333,1.035203,0.035404,1.919047,1.576885,0.261642,5.752979,1.837835,-0.818213,1.631131,-2.505978,0.686032,-0.690005,1.444662,-2.327918,2.741439,-1.125872,1.069437,-0.001756,2.561977,-0.690764,1.027007,-1.212108,2.853844,0.371034,3.210484,2.549231,2.741736,1.394528,1.264356,1.896834,2.587675,0.018765,-0.057634,1.803136,1.517111,-1.265961,0.013592,1.73293,4.114969,-1.064516,-0.467044,-2.801239,-0.364824,-2.288417,0.436954,-1.678946,-0.064001,-1.751385,-1.127383,3.869178,1.304062,-2.147919,-0.727707,-1.94256,2.03877,-2.168349,-0.889869,-0.671341,0.968618,-0.6652,1.568919,-1.478174,0.985352,-0.763025,-0.214296,-2.409249,1.320495,-0.670807,-1.429659,-2.658529,-1.591349,2.211619,-0.099998,1.27298,-0.357354,0.273089,0.226401,-1.375466,0.672064,1.623677,1.280395,-4.025123,1.351245,0.047208,0.2792,-0.968822,0.377887,1.214778,-1.838944,1.092457,-0.926223,1.850102,-0.185611,-1.606109,-2599.780518,-1558.585938,-2067.287842,-1380.088135,-0.618349,0.058168,0.288579,-3.207386
stress19,L2,suffix,235_415,2.446761,3.255114,-1.037949,2.671633,0.535566,0.667343,-1.582022,0.813823,3.642693,3.548326,-1.493423,3.224309,2.819334,1.424655,-0.614982,2.750171,0.901263,1.352984,-0.348636,1.671943,-0.4594,0.115736,-0.332717,-0.317957,-0.059129,0.997662,0.653416,-0.147708,0.464407,1.163031,0.884617,1.809448,1.825483,3.240209,1.652271,3.12418,-1.688778,1.634676,1.892317,1.251208,-3.251205,-0.637275,1.389024,-2.375067,-4.702348,-0.927001,1.16836,-3.577814,-2.459373,1.20967,2.853207,-1.280341,-1.206727,1.963074,2.726129,2.215071,-2.531028,0.796468,2.74152,-1.903764,-3.875122,1.227307,2.355703,-2.794111,-3.373982,0.675449,2.367365,-3.259303,-5.219437,-0.69351,2.232834,-3.331356,-2.706123,-0.844488,2.511717,-2.967907,1.371247,1.110522,2.554207,0.519231,-4.588254,-1.854425,1.032526,-3.681858,-4.92096,-1.974127,1.706102,-3.981199,-2.787619,-1.666627,0.80952,-2.333614,-4.102299,-2.320772,1.089949,-3.810654,-1.876321,-2.941851,1.435609,-2.533568,1.508655,-2.89644,0.983767,-2.137369,-1.621123,-2.307845,0.333701,-1.824305,-2.062335,-1.730966,0.432222,-1.876639,-1.547825,-1.444654,0.47324,-1.368298,0.479478,-1.294331,1.314803,0.217458,2.768342,1.987312,-0.983892,0.655519,-2738.307617,-2103.068359,-2454.35083,-1853.408081,-1.065572,-1.450241,-1.402157,-1.214469
stress2,L1,suffix,235_415,5.431804,1.281896,1.399539,0.380414,1.800841,0.454617,1.427246,0.381434,0.737654,0.934561,0.196374,1.162202,-0.170076,-0.517886,-1.377642,1.079927,0.128869,-1.161208,-0.108024,-0.497884,1.215832,0.528929,2.211837,0.255103,-0.593244,0.067798,-0.722266,-0.542894,-1.016121,-2.140219,-1.250028,-0.78546,-2.130683,-1.932499,-3.48163,-0.324844,-0.806509,-1.613675,-1.56817,-1.017161,1.013252,-6.379634,-0.402151,-6.681287,-0.223732,-0.748918,-1.710199,-0.224141,0.164669,-1.027526,-1.734376,0.129054,0.027004,-1.809473,-3.329516,-1.682342,-0.255472,-0.255137,-2.018683,0.370878,-1.318699,-0.520582,-2.73183,-0.725409,-1.61123,-0.900222,-2.950489,-1.025965,-1.79508,0.439846,-1.224037,0.630091,-0.751351,-0.230075,-0.392363,0.028045,-1.760251,0.623848,-2.526954,-3.782511,-1.188159,-1.159127,-0.34959,0.0429,-0.834214,0.347806,0.163471,0.957471,-0.29376,0.499063,0.192572,0.722193,0.908575,0.061861,0.777359,1.126068,0.674088,-0.82614,0.48007,0.279276,2.349921,2.245907,0.191133,3.049657,0.102329,0.084247,0.802334,1.008013,0.091142,0.98561,1.587635,1.703927,0.756451,1.710139,1.823291,1.496449,3.689205,1.282065,1.974298,3.171842,6.053255,3.133481,2.17627,3.561388,-1134.172729,-1251.53186,-2633.59375,-2133.813477,1.296979,0.436217,2.002862,1.369118
stress2,L2,suffix,235_415,-2.553771,0.682584,0.591773,0.113425,-0.631642,-2.549224,-2.428764,-4.325676,-3.672153,1.828354,-0.475836,-3.872949,-2.098491,2.73228,1.892198,-0.833516,-3.189561,-1.400865,-2.226459,-3.714324,0.810891,-5.12366,-1.842164,-2.424263,0.207097,-5.540715,-2.108374,-2.107707,-2.707838,-1.06985,0.213753,-1.691284,1.026173,2.035459,4.095941,2.646208,0.269693,-2.169811,-1.132817,-1.115516,3.694469,-6.320855,-0.740062,-1.43383,3.87466,-5.692554,-0.015309,1.133684,3.290967,-6.170919,1.196126,1.155566,1.758705,-1.521588,1.469028,0.526562,4.451106,-2.883774,3.360237,1.065092,4.782407,-1.510561,4.407207,1.501937,5.434255,-0.557039,3.625255,1.799847,4.011255,-3.19125,-0.159814,1.774365,2.678763,1.192446,3.504863,1.500795,2.678534,3.156447,8.225694,4.16097,1.263565,-1.721241,0.0713,1.500711,1.89324,-4.207517,-1.235205,-0.409697,2.445331,-4.933378,-0.36964,-2.814434,-1.611254,-3.377101,-1.609905,-0.42554,-2.543932,-3.695455,1.996744,0.818967,-3.191272,2.911315,1.303228,1.42915,-4.769105,-6.701955,-1.645966,-1.255909,-1.502871,-2.682526,-2.859514,-2.065324,-1.553651,-2.958767,-4.532906,-3.834834,-4.023427,-4.680841,-0.217057,-1.34684,-0.189247,0.521845,0.67938,-0.549018,-871.447693,-981.561401,-2426.001709,-2226.229492,-1.234902,-1.730636,-4.107211,-2.269059
stress20,L2,suffix,235_415,-16.497581,-2.99275,-5.393423,5.75194,-6.838081,0.905083,-3.29988,0.159908,-5.133555,1.633579,-2.29996,-2.801636,0.575926,1.357744,-0.304469,-3.839257,-4.137136,1.989904,-1.898606,-1.626874,-3.539208,1.234032,-2.070723,-1.169737,-2.030396,2.921567,-1.221669,0.839952,-1.581361,2.678488,-0.413906,-2.178066,7.522521,0.606369,4.662149,1.298469,0.775971,3.186318,0.817944,1.042965,-0.42515,2.305658,-1.257666,1.696727,0.085399,1.432483,-1.092801,2.618518,1.318144,2.623648,1.440556,2.31434,2.176925,2.112864,3.380879,2.50331,1.549901,-1.460947,3.819978,2.10692,1.95752,-1.696286,2.383992,2.715785,1.627246,-2.094841,1.490031,3.198924,0.514195,0.052898,-1.321788,1.663219,0.792335,-2.886164,0.729678,2.240805,8.958184,-2.678467,3.749277,0.06064,0.713027,-0.395662,-1.412733,-0.018909,-0.911279,1.539234,-2.222358,1.326289,-1.672216,1.288596,-2.915724,0.90096,-0.147451,0.954741,-1.84881,-0.151491,2.674485,-0.165141,-0.889205,-1.632082,5.747965,0.786731,-0.290604,-3.593479,0.134148,-0.633273,-2.75647,-2.171621,-3.13224,0.266935,-2.226151,-1.495904,-4.12119,0.555042,-2.971547,-0.446096,1.245968,0.944011,-3.468868,-0.665356,-12.242277,-2.20613,-5.076383,5.628181,-2552.738525,-1755.144165,-2618.503418,-1548.51355,-5.49357,0.690698,-2.803808,-0.453036
stress21,L2,suffix,235_415,2.578201,1.127342,-0.447652,0.881962,-1.844447,1.378181,0.197114,-0.295682,3.352626,0.897781,0.98465,-1.443552,2.39144,-0.422869,-1.607399,-1.228245,-7.354712,1.028711,1.067982,-1.82912,-0.969976,1.454027,-0.105709,0.085235,-0.069131,0.758794,-0.222933,-0.54087,-2.001466,-1.225237,-0.811987,-2.504328,3.6076260000000002,-1.693385,-0.949698,-2.239177,0.320202,-0.675326,-1.485274,-2.816654,1.45236,-0.220526,-1.757246,1.019979,1.169611,-1.788083,-1.784846,0.98206,1.056968,-0.814905,-1.198412,-0.864616,1.290135,-1.022361,-1.004483,-2.061628,2.01444,-1.073802,-0.669703,-1.841293,2.061573,-2.21915,-0.281939,-0.928828,2.043538,-2.683488,-0.877458,-0.642472,0.482847,-2.554971,-1.494598,1.197259,0.461681,-1.192833,-0.463493,0.222558,3.050357,-0.949208,0.245982,0.977711,-1.655893,-1.763656,-0.625987,0.735008,0.657497,-1.058876,-1.299965,1.871204,-0.272381,0.973457,0.315201,1.568248,-2.609062,-0.194209,-0.160218,0.600498,-3.716661,-1.018488,0.510656,1.498841,-0.139709,0.157161,0.319432,3.026852,-9.359287,-0.194624,0.809,1.040308,-3.656415,0.992516,-0.1691,0.404073,-6.688497,0.12809,0.555627,-0.002142,-0.639716,-0.447634,2.781814,2.148041,-0.08349,-0.901959,2.058054,0.488275,-2692.426758,-1551.691162,-2531.564697,-1561.200073,-2.219327,0.880865,0.234572,0.420489
stress22,L2,suffix,235_415,2.17838,-1.407522,0.820913,-4.283142,1.080035,-0.186818,-2.83242,-0.166229,0.812476,-1.199365,-0.397693,-2.778083,0.638199,-2.484107,1.485806,-1.714199,0.773696,-0.954348,-1.90861,-0.58701,0.40225,0.20423,-5.189579,2.175827,-0.347678,0.756635,-3.048265,0.661505,1.126058,-2.846836,0.129156,-0.535781,-1.865534,-3.220431,5.838244,-0.055071,-0.950183,-2.270128,-0.963291,0.654083,-2.324404,0.826237,-3.63033,2.943764,-3.545999,1.707479,-2.796068,3.897776,-2.661973,0.507466,-2.233195,3.262803,-0.706813,-1.894643,0.046726,1.036572,-1.671765,-0.854465,-1.098891,3.124512,-1.966261,0.47854,-1.269047,3.896237,-2.056653,0.122564,-0.921457,4.482018,-2.919549,0.422027,-2.49218,3.266778,-0.998981,-0.771482,0.630772,1.659826,-1.153293,-0.0764,7.367932,-1.737892,-2.311717,-0.234965,-1.444443,2.424823,-2.476424,1.435782,-3.873167,3.036541,-1.557715,0.817302,-4.537524,2.901778,-1.815493,0.684159,-4.548335,2.684042,-0.564638,-0.315225,1.414229,1.464026,-0.124785,0.90589,2.975068,0.3996,-2.123801,0.335346,-1.741055,1.578955,-0.909261,-0.623505,-5.146862,2.235273,-0.514085,-0.663049,-3.531699,1.254477,-1.076555,-0.283808,0.649845,0.583277,0.099412,-1.850424,-0.755647,-4.36062,-2664.649902,-1762.989502,-2369.586426,-1558.609375,1.006276,1.098944,-4.40206,0.597654
stress23,L2,suffix,235_415,5.461295,7.534744,-0.389957,3.925632,3.257954,5.109992,-1.131806,-1.186451,3.964185,13.937735,-1.698079,3.752101,2.028044,10.718125,-1.975784,3.096866,2.238361,5.853948,-2.87403,-1.160957,3.190801,1.803998,-2.169647,-1.947393,1.90812,1.715223,-1.006567,-1.910143,3.526371,5.1717,-2.486776,-1.219124,-7.565371,1.947133,4.97459,2.794191,6.637228,2.716867,-3.970782,0.028511,0.367546,-0.131624,-0.488303,-1.175461,2.167329,-0.333071,1.165314,-0.630226,1.618228,-0.824897,0.87417,-2.383422,6.040492,0.032727,2.268407,0.745711,3.173722,-2.044725,3.826148,0.105222,2.617449,-1.767328,2.225123,0.169728,2.850422,-2.301988,2.494873,-0.3468,2.545233,-2.787733,1.161685,0.034629,1.492935,-2.287178,7.659554,3.583295,-0.658165,-3.942354,1.862984,1.69032,5.006999,-4.396177,-0.177072,-0.909914,1.879091,-1.298691,-1.18391,0.076417,1.961379,-2.411858,-1.852385,-0.29023,3.471498,-2.798077,-0.221802,-0.448998,-1.363965,-1.629733,0.35897,-1.91126,0.52571,-6.753186,-3.890077,-0.30835,3.750369,-4.494409,3.080479,1.079877,4.944313,-1.382119,-1.529181,-0.813358,2.157393,-0.255104,-3.424729,-1.288169,-1.212381,-11.619924,-3.041614,-2.222194,4.463845,-0.288938,1.578563,1.988651,-2525.925781,-1767.765869,-2225.456055,-1681.538086,2.741182,0.665068,-2.27919,-1.49484
stress24,L2,suffix,235_415,-6.538718,-1.859022,-8.425942,1.829648,-1.331527,2.097906,-1.872713,-0.437747,-1.898558,4.468715,-1.293155,1.26686,-1.229131,1.237781,3.118418,-0.557451,0.327818,3.295952,-0.638987,-1.163908,-1.037614,0.063294,-3.213137,-1.705159,1.242921,-0.041522,-3.238428,-2.740266,-0.675327,-0.343262,1.127202,-1.89394,4.543243,0.830231,4.970852,1.351086,2.687695,-1.259535,0.08685,-1.115478,2.473952,-0.846149,-4.647349,-0.864853,2.455605,-0.598218,-5.481782,-0.873171,3.736651,-0.220899,-1.672471,0.944491,3.791242,-0.425108,2.405009,1.749591,2.593541,-0.767325,0.066763,4.257862,2.661005,-1.339548,-1.215146,2.077103,2.07902,-0.968655,-2.482406,0.189147,1.302936,-0.310095,-5.316302,-2.103975,0.946556,-0.365748,-2.522113,-1.393566,2.644787,0.46846,1.898268,1.007639,0.517455,0.222749,-4.585179,-5.412557,0.769383,0.324331,-6.512371,-3.947533,0.444832,0.238,-5.883451,-2.799346,0.859117,0.543361,-4.984588,-4.691706,-2.802823,-0.69184,-3.942713,-5.851852,-1.466322,1.477625,0.235277,-3.658686,-0.60728,1.551797,-3.079519,-3.86936,-0.851832,0.234699,-4.434642,-2.833628,-1.843319,-0.277585,-4.213305,0.307578,-0.875018,0.786084,0.138021,-3.866285,-5.890114,-3.056248,-8.009508,0.506221,-2587.10083,-1603.377808,-2549.53125,-1550.971436,-2.396009,-0.432898,-2.289706,-0.786242
stress25,L2,suffix,235_415,-1.855608,-3.120791,-3.507329,-1.809322,-0.560453,-2.508117,-1.459827,-0.218983,-0.495489,-0.438117,0.522604,3.084553,0.424281,-0.473095,0.47313499999999997,3.678631,-0.392123,-0.618468,-1.257081,-0.296782,-0.530317,-1.105662,-2.524565,-1.791326,-0.264217,-0.18669,-2.394707,-1.372201,-0.628241,-0.409502,-0.401216,1.350027,2.676825,3.829337,2.413204,3.013109,1.123977,0.805895,-0.89566,-0.23525,-0.43102,-0.673065,-3.388294,-0.688189,0.075227,-1.584235,-3.887547,-0.442735,1.801151,0.188247,-1.318456,0.242327,2.486669,1.280542,1.149021,1.582654,2.46958,-0.667219,0.165559,0.869027,1.955765,-1.998123,-0.66425,0.1526,1.20522,-2.228187,-1.596963,-0.751149,-0.318024,-2.105935,-3.299525,-0.944423,-0.376141,-1.317682,-1.453761,-0.943,2.076876,2.937325,2.785107,2.42463,-1.357201,-0.973581,-2.340293,-1.542718,0.050068,-1.838591,-4.563782,-2.017205,-0.75201,-0.595206,-3.976591,-1.435931,-1.317636,-1.163436,-2.714029,-2.082697,-0.44971,-0.225255,-0.805786,-0.379707,-1.643763,-0.093408,0.456311,1.123592,-1.614357,-0.422098,-0.889028,-0.776494,-1.219367,-1.675477,-1.757688,-2.169086,-1.667978,-2.040423,-1.921329,-1.367633,-2.31462,-0.943761,-0.299513,-0.059533,-2.793241,-5.155654,-3.906397,-4.121638,-2577.926025,-1668.709961,-1772.552002,-1560.486328,-1.584567,-2.255553,-1.73277,-1.812579
stress26,L2,suffix,235_415,2.833768,-12.018165,11.02021,-13.14923,3.1321,-4.218686,3.304771,-2.758404,0.881473,-5.476787,1.742327,-2.586957,-2.050488,-2.141439,-0.745648,0.899447,0.987439,-3.30654,0.2684,-0.024562,3.867178,-1.500883,2.986505,-1.347347,2.29266,-0.109435,3.039595,-0.728029,-0.609539,-1.039463,-1.554726,1.211296,-5.989133,3.792773,-2.759072,4.563113,0.786473,0.364958,-0.206625,0.526257,1.4892,0.855865,2.879984,1.079859,-0.549464,1.734842,3.136564,1.123715,0.98128,0.98059,0.610031,0.99201,-1.38344,0.471516,-0.563851,1.670031,-1.812476,0.555955,0.196982,1.368805,-4.871565,-0.337798,2.776261,1.340771,-2.164342,1.521408,0.641889,-0.368943,-1.415366,0.961723,1.485053,0.765631,-1.34912,1.201922,0.537879,0.192801,-5.875409,4.665742,-2.829812,3.338463,-1.266758,0.337822,-0.061794,-0.937308,1.992651,-0.193768,1.980702,-0.144717,1.660371,0.289562,3.831487,-0.843254,-0.692979,-0.135006,2.23579,-1.359334,-1.8551,1.966394,0.05106,-0.301793,-0.565563,1.375533,-0.842362,-1.42229,0.554114,-1.82538,1.218609,-3.201547,1.933862,-0.927857,1.831984,-1.794228,3.436991,-2.019453,1.539884,-5.234729,2.188624,-0.716289,1.436404,-4.992563,9.428035,-13.109537,7.864933,-10.934682,-2474.417725,-1630.558594,-2525.305176,-1373.308838,3.954846,-2.819505,1.862962,-2.633859
stress27,L2,suffix,235_415,29.427784,24.806004,-33.299904,-1.178889,27.13492,-4.435685,3.085976,6.734189,67.717529,-17.837208,23.577942,21.78862,35.83329,-16.549706,21.718643,11.899652,38.777737,-6.462676,15.024374,8.713787,6.2888,-5.371737,-0.857719,2.470284,9.135864,-10.18285,3.230096,2.582395,22.44558,-7.249376,12.332362,4.658236,7.616188,-6.698343,16.817974,2.88221,8.784204,-7.724904,4.48572,1.962969,0.919063,-7.584088,-0.147788,0.757773,-3.703364,-6.863714,-2.363014,-0.115845,1.919008,-7.376494,1.522194,1.929538,5.126364,-5.317203,4.857576,2.106243,-0.894891,-5.392945,3.193558,1.612697,-3.070878,-5.398604,2.429047,1.098996,-6.148375,-3.99868,0.006112,-0.645532,-9.790151,-3.100736,-3.599509,-2.391862,-10.478412,-0.832964,-2.278477,-3.554793,-12.077671,0.41554,5.977842,-4.688035,-14.969103,0.303167,-5.747787,-5.412795,-8.469872,-5.041337,-5.140213,-3.570648,-3.03404,-6.085987,-4.453286,-0.45916,-15.213943,0.225551,-8.469895,-4.631988,-21.740211,5.998099,-7.766214,-8.731859,-32.460258,13.988621,-10.818607,-13.551622,-27.3204,11.990149,-10.587688,-10.086988,-8.042907,-1.002514,-7.216129,-1.397912,-13.530313,10.572209,-14.012379,-5.181589,-45.534767,29.507978,-22.434034,-17.942091,14.046377,19.278006,-30.561918,-1.547657,-3594.158691,-1903.206177,-1930.326294,-1442.050415,1.48716,2.094268,-7.598607,0.601944
stress3,L1,suffix,235_415,-13.200981,-14.11496,-19.15774,-41.741966,-5.104012,-3.606926,-6.881155,-19.816505,-10.956265,-5.077824,-8.618717,-22.482927,-4.981444,1.073979,-0.863315,-2.511378,-4.967182,-2.575582,-3.23178,-13.203651,-2.070383,-1.046723,-2.250549,-13.694078,-1.511052,-1.272973,-1.053938,-11.665375,-4.299114,-2.356374,-0.372678,-3.245502,5.252022,3.009784,5.708332,21.518389,-2.840296,-2.192017,-0.124625,-4.85466,-0.776322,-0.91119000000000006,-1.549708,-9.790581,-0.18865,-0.575918,-2.333002,-7.206292,-1.311351,-3.136431,-0.034626,-6.328542,-0.111659,-1.763837,1.725523,1.224192,0.609241,-1.930758,-0.927994,0.482711,1.401461,-1.182374,-0.81179,1.057619,1.215539,1.459934,-0.981111,2.095009,0.038399,0.410887,-2.447097,-3.632086,-1.210849,-0.226853,-1.60681,4.165274,3.286135,4.4543,6.076058,22.290989,-0.289562,0.798747,-1.864369,-0.549285,0.766559,0.506445,-2.626715,-6.347567,0.018868,-1.368502,-2.158267,-10.247995,1.609419,1.314685,-1.461492,-4.811786,-1.758139,1.295963,-0.012988,4.946782,1.367531,4.194352,4.228074,12.102818,0.506548,1.602246,0.709018,0.399231,0.412128,0.063257,-1.080367,-9.279458,-2.994903,-1.854808,-2.389057,-9.047547,1.470366,2.800954,3.067781,9.445467,-10.431903,-9.918397,-14.312343,-32.773769,-156.462311,-21.544971,-2326.814209,-2417.599609,-2.846051,-2.488028,-3.928129,-14.603127
stress3,L2,suffix,235_415,-0.023539,0.763775,0.176202,-2.925448,2.642746,-1.028656,-0.533282,-2.539469,2.310822,-0.229829,2.20823,-3.818556,1.977134,-0.171707,2.233079,-1.091951,1.12668,-1.522555,-0.648581,-0.74118,0.252665,-1.859213,-0.677657,-2.989263,-1.245947,-1.674632,-0.581937,-1.897427,1.316978,-1.563362,0.978468,-0.401679,-0.397225,1.018548,1.799107,4.739594,-1.714344,-1.026293,-0.233923,-1.622468,-2.227442,-0.978651,0.399112,-0.310541,-4.65952,-2.548016,0.365245,1.576381,-2.759,-1.028233,0.285683,0.29193,-1.677533,-0.352244,0.530153,1.230347,-3.199998,-1.964451,0.437804,1.600619,-3.559823,-2.648933,-0.013501,2.252419,-4.570552,-2.844491,0.181529,1.754275,-4.865158,-1.66492,-1.378228,-0.103008,-0.748678,-1.802056,-1.611397,2.988587,-1.764251,0.449542,1.522617,6.823343,-3.374876,-1.720934,-2.12019,0.036854,-4.036459,-0.741938,-1.710463,-0.793887,-1.889074,-0.987238,-1.193175,-1.162128,-2.899309,-0.761389,-2.934586,-0.95708,-1.423886,-0.904639,-1.457511,0.659464,-0.13558,0.577037,1.989169,2.586709,-0.966807,-0.696712,-0.723578,0.689942,0.003155,-0.958199,-2.6277,-1.135008,-1.67922,-0.755543,-1.690912,-1.5148,-1.76499,-0.883121,0.693529,0.878156,-2.050127,-0.065094,-0.826386,-1.1028,-774.734924,-965.233704,-2628.61377,-2212.4375,0.720492,-0.489364,-1.107241,-3.854313
stress4,L1,suffix,235_415,-0.807388,1.83996,2.983726,-1.544459,-0.446395,3.198344,3.080788,0.187256,4.137568,1.45387,2.836916,-0.838425,5.474033,1.07173,1.190408,-0.156386,-0.640399,4.04389,1.111799,0.959163,0.461755,1.674162,0.393316,1.478756,-1.759326,2.972271,0.759134,2.297398,2.001354,-0.997181,1.76928,1.209519,-1.364851,-1.784806,0.151271,-0.438239,-1.366778,0.964976,1.910295,2.183744,-1.766653,1.117673,0.386372,3.592048,-1.972006,1.277761,-0.053788,2.841748,-2.514828,2.1959,0.920622,3.262693,-3.540155,1.874741,2.58925,-0.320112,-2.64519,1.648692,1.752398,-0.277992,-2.671922,1.714118,1.768675,-0.285447,-1.795001,-1.712395,-0.940034,-3.687851,-3.959282,0.926958,-1.70362,1.524284,-4.620869,1.519527,0.782992,-2.749559,0.869179,-1.468559,-3.908857,-2.593218,-5.1235290000000004,-0.037765,-0.379632,-2.922783,-2.105351,1.007355,-0.910937,2.393092,-0.905719,-0.043387,-0.229905,2.838004,-3.507364,0.682978,-1.569031,0.18452,6.231054,-0.686931,-2.985357,-2.904008,6.182344,-3.172632,0.371407,-3.863366,0.699929,-0.25709,0.559148,-2.72482,-0.17054,0.817574,0.13433,1.19534,-1.980489,0.40506,3.457904,1.670028,-0.707267,3.571746,2.170642,0.01445,1.667376,2.397921,0.703016,-2.822694,-42.475109,146.415207,-1942.571777,-1652.669189,0.165222,1.084458,1.252528,1.010484
stress4,L2,suffix,235_415,1.396274,-0.724002,-1.015868,-1.101469,0.209593,-1.157847,-1.835624,-2.681587,2.688594,0.647438,-2.182959,-0.59385,3.839974,0.564611,-1.237901,0.542245,-0.320837,-0.464813,-2.752099,-0.745324,-2.171439,1.330195,-3.032568,-2.233572,-3.028429,-0.270707,-2.56546,0.005912,1.585259,-0.98903,-3.237294,-0.63631,2.897708,-1.037795,0.792566,2.591235,-1.146396,0.605217,-4.649247,0.495064,-4.377174,-1.68841,-1.641585,0.093431,-4.439068,-1.250353,-1.080834,0.286806,-4.288478,-0.593111,-3.483959,0.335403,-0.69941,-0.118854,-4.765721,-0.03464,-2.883766,0.578942,-3.850503,0.443816,-3.797485,-0.491148,-2.242591,-1.035812,-4.279558,0.212905,-1.978575,-0.635376,-5.395162,-1.20045,-2.2980680000000002,-0.165876,-2.492971,1.074814,-1.06649,0.190178,3.249875,-0.255666,1.844028,0.65352,-4.031456,1.336736,-0.798051,0.033416,-5.798417,-0.539248,0.316236,-0.382832,-4.758008,-1.009284,-0.19537,-0.611697,-4.46147,0.592296,-1.304688,-0.555238,1.62448,2.526141,1.130928,-0.510433,2.652495,0.573404,4.96074,-0.146202,-1.38176,2.852929,-0.82112,-1.069057,-4.433334,1.41276,0.668856,-1.028536,-2.410857,4.288592,-1.146553,-0.753368,2.456696,3.227039,-0.236953,-1.018652,2.580242,-1.335313,-1.434164,-0.339185,-926.429565,-977.082825,-2674.85083,-2261.7854,-2.049193,0.431153,-0.878865,-1.081585
stress5,L2,suffix,235_415,4.122691,-16.131329,-19.304457,2.988722,-0.974002,2.407065,1.790542,-0.183222,3.896821,4.957653,4.386656,-0.761623,4.346574,2.73846,3.550237,-0.080972,1.135389,3.327106,1.282214,-1.827699,-2.349665,1.957728,0.043555,-0.442686,-1.4471,0.601133,-1.400599,-2.347781,3.436782,2.163309,2.261897,-0.833379,4.255573,-2.469393,-0.124353,0.194361,-0.031003,-0.637698,-2.225787,-2.82677,-3.643655,-0.340331,-5.529502,-3.494922,-7.057246,-3.214905,-7.160807,-3.370657,-4.367822,-2.159191,-5.401364,-3.508222,-0.827124,0.389365,-2.267482,-3.706337,-5.554795,-1.724456,-4.985348,-5.326914,-6.458993,-3.642155,-5.40432,-4.306611,-6.066005,-2.797182,-4.866018,-4.198303,-6.40484,-3.181254,-6.069392,-2.670784,-4.551535,-1.657822,-3.504723,-1.470585,1.415445,-4.522899,-0.407726,0.135168,-3.419869,-2.013414,-3.794324,-1.926327,-5.470812,-0.849394,-4.77711,-2.29788,-4.092021,1.864571,-1.260509,-1.092406,-3.094412,-0.372345,-2.367246,-1.050386,0.57861,0.044951,-2.149781,-1.007603,0.49762,2.055399,0.894818,-0.241721,-1.67146,1.022401,-1.958784,-0.705759,-2.103845,1.623016,-0.777135,0.512954,-1.446218,1.27658,-0.607101,-0.160712,-0.45985,-0.174653,-1.095247,-0.470259,2.577017,-1.660712,-5.306008,1.902229,-629.691528,-908.831787,-2363.224609,-2156.965088,-1.89034,2.330763,0.177359,-0.109843
stress6,L2,suffix,235_415,-2.626827,2.62362,5.788987,-8.991001,0.081425,-1.206186,3.052876,-9.171779,-0.008664,-1.058721,0.995445,-1.998968,1.128721,-0.140946,0.469699,3.619211,-0.174374,-0.06504,0.414098,-3.810633,0.059511,-0.595858,1.99635,-8.025883,0.714444,1.236959,0.487054,-5.348641,0.642011,0.807895,-2.08234,1.729229,2.278555,-0.257242,-4.28596,12.917348,0.979707,1.741821,-0.955768,-1.329223,-0.217973,0.616716,0.44419,-5.111176,-1.418557,-0.181338,0.885435,-3.567523,-0.65432,0.062202,0.260573,-2.3617340000000002,0.102489,0.095568,-0.679055,2.373569,-1.741267,-2.382843,-0.154308,-0.255239,-2.109434,-1.830515,-0.284065,-0.616016,-1.756554,-1.970788,-0.705327,-1.91574,-0.966963,-0.846148,-0.457822,-3.157801,-1.335697,-0.06309,-1.326209,-0.468728,1.299676,1.082948,-6.152739,11.642935,-0.651992,1.067203,-1.168593,-2.002342,-0.854886,-0.036978,0.234285,-5.192771,-0.626294,0.346355,1.273465,-6.298215,-1.192798,0.068698,0.630431,-4.928236,0.128725,1.603494,-1.504006,2.057374,1.843474,0.472241,-2.329281,3.696833,0.093262,0.61252,-0.877519,-2.499225,-1.461438,0.087339,2.101137,-7.292553,-2.10503,0.026351,1.009053,-7.455963,1.255849,-0.322827,-1.361228,-0.222835,-4.758671,1.210258,2.19873,-8.831974,-3276.453857,-1850.936646,-2369.965332,-1560.062378,-1.192744,-0.275235,3.479566,-8.186762
stress7,L2,suffix,235_415,2.351265,-11.00457,-1.959724,-9.281412,-0.8024,-4.158259,-7.22545,-6.545125,3.29536,13.943105,-4.59833,1.023219,2.45767,-11.172776,8.593971,-5.083457,3.088061,14.256192,-13.798467,2.828122,-0.161009,-3.552476,-5.192268,-5.318069,-0.319903,-4.842706,-6.804088,-6.00757,1.878907,15.405286,-3.469884,5.171397,2.165746,3.575263,6.957257,4.904181,-1.020601,-2.131005,-3.224575,-5.644241,0.886108,-2.594018,-5.187112,-3.108771,1.255098,-3.012007,-3.36227,-3.608063,1.298108,-1.650754,-3.088025,-3.472479,0.452045,-1.042059,0.535486,-2.637363,1.075874,-2.728951,-0.016316,-3.685876,1.089706,-2.953797,-0.956698,-2.684452,0.045511,-3.419014,-0.369438,-3.574685,1.214934,-4.034007,-2.729114,-3.734787,-0.537813,-3.19559,0.065183,-1.554148,-0.867906,8.365875,6.380698,7.026624,-0.591677,-3.613226,-3.944912,-4.760979,0.737913,-3.910434,-4.470339,-3.437231,0.238345,-3.030395,-3.317571,-4.106277,-1.789415,-5.591592,-6.13258,-6.407857,-4.176444,19.763449,-7.005024,10.901602,1.706153,-8.764009,4.723113,-4.212488,-3.906007,11.330075,-12.668886,0.76987,1.072223,-4.521848,-1.893162,-5.454409,-2.128203,-3.091916,-6.214943,-4.237158,-0.887206,7.30999,-7.755095,3.355583,1.690119,-10.15338,-2.927254,-5.576807,-3042.162842,-1815.696899,-2424.589355,-1629.569946,-0.432613,-3.980382,-4.445986,-3.976937
stress8,L2,suffix,235_415,-14.027656,-12.773113,1.368352,-6.04775,-7.167818,-4.504357,1.526176,-1.758123,-14.057005,-7.669661,3.658229,2.451397,-2.976306,-0.208128,3.113708,-1.437333,-6.01719,-4.244291,3.620966,-1.355698,-4.004168,-3.288893,1.046105,-0.517704,-3.342833,-0.672724,-0.592071,-1.373719,-2.832,-3.164935,0.440369,-1.090336,5.693359,4.759882,-4.618797,-2.058131,-2.443655,-2.639637,-0.317155,-2.157786,-3.318001,-0.71263,-0.673812,-2.102723,-1.767627,-3.479795,-1.788061,-1.102608,-1.265858,-2.62874,-1.568062,-0.932273,-1.121049,-1.273857,-0.803082,-0.66146,0.032263,-0.902613,-1.460276,-0.905588,0.719096,-0.439191,-3.61517,-1.368959,1.276394,-1.788798,-0.44034,-0.536312,-1.149644,-2.99859,-2.134029,-0.196616,1.822686,-0.805758,-1.137602,1.470821,9.204338,5.360037,-0.957563,3.860582,-1.375567,-0.220675,-2.143881,-0.049253,-1.792243,-2.744191,-1.924569,-3.093392,-2.714904,-3.033388,-0.52548,-0.785482,-0.767144,-0.987855,-0.020352,0.088553,2.188921,2.913307,0.677559,1.876712,7.308141,11.779461,4.642581,5.316973,1.463585,2.909106,2.180221,1.284878,-2.961822,-0.635288,0.055313,0.255498,-3.38179,1.294906,2.871831,-0.331657,4.585381,6.617548,4.433798,4.007104,-8.188363,-7.904648,2.820671,-1.842972,-2877.666504,-1758.319336,-2255.387451,-1588.306641,-4.965899,-3.373308,1.858786,-0.600813
stress9,L2,suffix,235_415,0.127895,-3.027867,3.466044,-1.493264,0.925058,-1.355702,0.815905,0.576023,1.46822,-1.682423,3.145786,-1.544995,1.885675,-0.240345,2.953721,-0.898465,-0.255345,-0.195234,-0.311756,-0.550386,0.591843,0.997023,1.272887,3.119432,0.368417,1.377812,1.598528,1.916704,0.336505,-0.503262,1.411299,-1.424589,1.438858,-6.488466,8.031855,-3.441879,0.014634,0.203822,2.265235,1.276387,0.396727,0.674493,3.621185,4.063568,-0.373366,-0.055614,2.142042,3.923773,0.253489,-0.315338,3.703694,2.795102,0.074669,-0.932755,4.660638,1.19353,-0.597348,-0.537274,3.368001,2.044283,0.188675,-0.644789,-0.445709,2.348317,-0.867925,-0.570288,0.991429,0.855913,-1.113515,1.840218,0.907635,1.728012,-0.544327,0.682404,-0.392393,-1.585262,2.521107,-9.584108,7.156099,-6.032878,-0.203898,1.070027,-0.695277,-0.877538,-0.079288,-0.238719,3.079909,2.918003,0.901835,1.449146,3.193171,4.385994,0.093233,1.233515,0.260781,1.089164,0.027204,0.267504,-0.951305,-4.390628,1.655011,0.036503,1.123262,-5.562393,1.218388,1.611953,-0.974868,-4.189014,0.670613,0.369362,2.145978,1.368189,0.394002,0.294961,0.956338,-1.713202,1.760809,1.153497,0.7169,-4.728056,1.138372,-0.001069,1.977152,0.465781,-2950.263916,-1975.327148,-2478.039063,-1564.865356,-1.319989,5.357526,-5.062652,3.158252
stress1,L1,suffix,415_550,-4.362069,9.891364,-1.556302,-3.149497,-4.649385,8.388207,0.797168,1.688552,-1.078118,1.653053,-0.480425,-3.38294,5.04468,5.905119,-1.002994,1.243395,-2.750314,5.951201,1.968292,1.301428,-4.243849,3.102612,2.077831,2.419376,-4.018207,7.096723,1.935477,2.66389,0.4053,6.754447,-9.97082,1.201707,4.515851,-13.008487,5.501367,0.998339,-1.37819,12.640306,-0.827358,1.766809,-2.918355,3.82709,5.190499,2.730179,-2.022757,4.017237,5.016462,2.345436,-1.692638,5.220242,3.577531,4.473257,3.535766,11.192918,4.593075,-1.79281,1.115599,6.332117,9.482547,3.74273,-1.972627,4.967672,3.65764,1.822552,-1.445177,4.306034,0.844907,-1.156992,-1.727507,5.732648,6.125055,2.233879,0.60129,5.845124,-0.425235,0.21243,9.695958,-16.052343,-7.879045,-1.489602,-1.895938,12.149679,-3.113352,-0.602889,-2.564184,5.090733,3.522015,3.170356,-5.090978,4.744924,4.16075,2.16908,-3.219018,6.682257,3.997817,3.223636,-2.1984340000000002,11.199773,-13.809666,-2.150792,-3.0416,22.720602,-8.995834,-1.945193,-3.806132,14.757195,-3.786486,-3.577982,-4.313837,7.168495,1.957212,1.361628,-5.183554,14.31554,-1.519148,0.798447,6.83007,24.082056,-40.671066,-10.082989,-8.473401,9.105287,-9.5265,-2.26509,1160.205688,707.231995,517.763733,-98.654961,-4.73727,9.68694,0.792558,0.163753
stress1,L2,suffix,415_550,5.822654,-3.289574,1.984145,-1.622916,3.899621,-1.550544,3.590355,-0.12971,3.016074,-2.129712,1.199679,0.406332,1.003169,-1.588965,-1.108087,0.438782,2.917906,-2.643514,2.275665,0.116184,2.436201,-2.102686,4.07356,-0.697225,1.780766,-1.636775,4.149725,0.402444,0.071846,-2.265464,-0.535451,0.149221,-4.209706,2.969773,-4.073737,1.023682,1.940659,-1.943226,3.458992,1.199101,0.814958,-3.063971,3.880929,-0.899375,-0.743029,-2.211903,3.296053,-2.440846,2.747274,-2.996471,3.2668180000000002,-0.754434,1.878627,-0.513614,0.680295,2.71743,0.099623,-0.875114,0.207512,1.931775,0.048391000000000003,-1.209023,1.42319,0.452424,-1.03176,-2.455477,0.425718,0.755278,-3.413078,-2.919571,0.494394,-0.878849,-3.268452,-2.308051,-0.128456,0.316456,-5.631528,1.403059,-4.736071,0.69668,-3.054574,-2.516676,-1.128852,-0.185163,-2.414957,-2.683159,1.845204,-1.55752,0.177086,-2.999212,4.086118,-0.066828,0.280097,-2.564966,0.752613,-1.040488,-3.523752,-0.885058,-1.338054,-0.870128,-3.67931,0.399505,-2.354495,-0.575215,-0.155122,-0.433001,-0.137624,-0.510644,0.269239,-1.658801,2.388976,2.046607,2.213334,-1.267407,1.965909,-0.363463,-1.76406,0.251335,-1.331878,-0.546897,4.234329,-0.886463,1.305476,-0.479064,1801.463501,1191.480713,900.817871,-445.560669,3.280411,-1.457611,2.936603,-0.573454
stress10,L2,suffix,415_550,-9.975074,3.866639,13.315392,-3.126751,-4.032882,-0.688088,0.072927,-7.467226,-0.218979,-0.402679,-13.140617,-17.033077,2.602103,0.419791,-12.273934,-9.131706,-1.195136,-0.278254,-7.702615,-10.112695,-2.71102,-1.028809,0.888475,-5.500075,1.104783,1.22728,-1.870757,-4.008973,1.404779,1.373762,-8.50479,-6.860386,9.165991,4.598341,-9.97454,-0.065669,4.508472,2.805658,-3.807829,-1.58752,1.09871,1.648754,-0.728644,-1.123027,2.345121,1.068501,0.564231,2.184123,4.853971,3.21837,0.437395,1.073794,6.438102,2.873842,-3.33613,0.516015,6.408566,3.128831,-1.574756,1.194541,5.966495,0.832489,-0.344965,3.550622,3.723791,-0.081367,1.225033,3.173513,2.097482,1.664927,0.265251,2.80693,4.468501,-0.279702,1.119243,2.994812,7.970549,1.241347,-2.274626,7.529009,1.445202,-1.167874,1.723619,2.495638,0.695792,-1.031903,0.881058,1.056581,-1.032282,-1.080985,1.44323,-2.190217,0.895607,-1.975337,2.783164,1.724802,1.045642,-2.819227,1.733365,7.210797,1.577289,-5.008308,3.085787,10.487938,-1.093597,-3.58037,4.808381,7.033817,-3.195845,-3.030973,2.885288,-0.635749,-3.895298,-2.686537,7.157308,2.467627,-0.896696,-4.829419,9.748094,14.102099,-10.35033,1.072494,15.825936,4.121402,-891.159485,-72.816475,-9.462164,-714.007996,-5.712181,-1.946563,4.083055,-2.48778
stress11,L2,suffix,415_550,4.200812,-1.69039,-4.597466,-1.956931,-10.770138,-0.573476,2.468358,-5.25323,-30.755415,-17.51333,-3.491905,-27.098103,-24.61799,-9.556581,-1.655125,-19.393354,-12.785322,-4.358817,1.824436,-10.0705,-2.18047,1.419328,1.405017,1.183613,-3.557155,0.148784,0.843427,-0.148367,-13.341482,-5.382753,-2.986003,-13.536301,-16.102606,-7.544401,-2.03581,-14.07618,-6.372244,-1.32019,1.839506,-3.890069,1.44022,3.022554,1.377796,1.139191,1.739425,3.27997,-0.69005,1.674749,1.082029,1.334115,1.767134,1.713563,-4.920723,-2.093029,0.292168,-2.702057,3.98768,4.610192,3.022667,-0.583307,3.214099,2.451622,1.087467,0.349304,6.414725,2.496912,3.161874,1.831316,5.941379,3.267091,-0.558025,5.15422,10.310052,5.15206,2.242089,5.794285,7.555722,-2.152018,-1.961845,-1.438898,10.00101,5.207071,0.590665,7.036206,4.785229,5.39823,1.352909,5.650166,1.992534,3.652846,1.919474,3.106502,8.416321,5.586037,-0.212109,6.940501,12.351809,2.794449,-0.293779,10.619418,25.71534,7.747157,1.546741,22.445007,19.465021,9.784695,2.599739,16.494232,3.808879,4.379254,-0.147786,5.376777,17.467186,8.651455,-2.357637,14.89791,34.641144,11.94335,4.317045,32.531528,22.478258,-16.068523,-9.392101,9.659541,-1001.809143,143.551163,122.978821,-984.666687,2.848963,3.232142,1.332553,5.171691
stress12,L2,suffix,415_550,1.14787,-1.579184,-0.477039,0.614225,1.424407,-2.186512,1.029239,0.60628,-0.776269,0.950114,1.869537,2.032808,1.786419,2.678769,-3.305066,1.144183,0.369631,-0.899939,1.056146,2.043145,1.412203,-2.084497,0.886572,1.043616,2.644717,-0.728534,2.726805,1.809357,-0.611354,3.124052,2.365061,3.783094,-3.004151,7.38161,3.22831,-2.841022,0.080831,3.286921,3.461329,1.479121,2.848497,0.141444,2.684617,1.265634,2.470331,-0.614542,3.306919,-1.446168,3.308788,3.002855,3.566381,1.201111,0.913116,2.685119,1.913004,1.726539,0.677377,4.089693,4.105039,-0.980922,0.546569,-0.327003,1.055052,-0.346515,0.069665,-0.743981,0.299294,0.016082,1.25016,-2.748889,1.918762,-3.299813,-0.685586,-3.459365,0.346445,0.300269,-1.750808,2.097963,0.101615,2.208427,-0.584357,-3.719562,0.198302,-1.83654,3.006402,-3.457339,2.653033,-1.135957,2.74701,-0.960559,1.792718,0.281828,1.039605,-1.642877,0.339685,-2.198436,1.185423,-3.034116,0.483653,-0.50562,0.284219,0.979542,-2.065647,-2.4462,0.823615,-1.969789,-1.5794570000000001,-0.542299,1.891214,-3.524749,-0.021564,-0.10142,0.621426,3.55012,-0.414396,-1.944105,4.044058,-5.128674,0.421654,1.453152,3.320046,-1.64554,-1.054303,0.478281,165.646088,109.752228,430.746552,-387.407837,1.584987,-3.159859,-1.109976,0.210866
stress13,L2,suffix,415_550,-0.05131,-1.134992,-2.179546,0.801108,-0.6097,-2.394296,-0.441846,2.652884,-6.464199,-1.198578,-1.01217,2.770734,-0.381123,-0.018554,-3.393154,-0.165174,0.778419,-2.928078,-0.643516,2.359564,-1.325161,-5.25857,0.551799,1.966043,-0.726471,-3.607199,1.771525,4.826447,-1.450806,-0.937624,-0.786286,2.059932,1.834873,8.62736,-1.714656,0.481885,0.18873,-0.261108,0.635617,3.991871,-2.585803,-4.573432,0.158794,4.533584,-4.569626,-5.689895,-0.947316,2.871808,-0.961893,-3.468956,0.426763,4.447967,1.756146,2.081318,1.222823,2.529423,0.429548,-0.290625,-0.68781,3.475904,-1.508508,-3.272275,-2.24084,2.396568,-1.248105,-2.113938,-1.935933,2.749361,-3.910039,-5.836356,-2.530438,2.26869,-1.679277,1.085112,-0.840475,2.440272,0.700953,8.53726,1.632716,-1.855084,-3.252458,-4.824425,-0.902206,2.894125,-4.795398,-5.551238,-0.563399,3.046944,-3.160092,-5.155764,0.026183,2.85153,-4.177358,-4.869129,-1.784102,1.106247,-1.550951,-2.242562,-0.748339,-1.151824,0.07544,0.797158,-0.553592,-3.957323,-3.025351,-4.290359,0.912463,-1.651571,-3.394105,-6.624271,1.688206,2.427029,0.661992,-1.880778,-1.008364,-1.339802,0.193198,-2.031048,6.730046,-2.690279,-0.461941,-2.732678,-1.469163,-0.275568,-936.476929,100.287628,249.439285,-601.844299,-0.845275,-5.721539,0.027313,0.457733
stress14,L2,suffix,415_550,-3.069867,4.581397,-2.201176,2.559103,-5.118942,3.076171,-2.950597,3.118521,-11.116443,-2.253025,-0.785709,6.972702,-8.904106,-5.610017,0.862758,6.428875,-6.326928,-0.743452,-2.473516,2.538292,-1.269818,5.511344,-1.883814,1.23998,-2.148458,1.262248,-1.049686,1.513875,-6.530622,-2.455271,0.438654,1.591891,-3.347306,-9.622583,5.820081,0.534901,-2.766008,-2.551928,-1.08932,0.982218,0.44657,0.850625,-0.304827,0.626712,0.791808,-0.951108,2.39413,1.429954,0.087649,-2.206559,1.765566,1.879672,-2.781243,-4.051643,0.399952,1.474134,-1.803918,-3.714533,0.928549,3.016169,-1.751105,-2.98666,0.890318,2.908313,-0.717622,-4.538011,-1.840944,3.123306,-0.4505,-1.79009,1.046596,1.112029,-0.081883,-3.235295,0.032812,-0.425148,3.582213,-9.109392,3.939321,-2.575151,1.37091,0.115837,-3.296136,-1.759035,0.282344,0.269653,-0.069853,1.087248,0.546635,3.582962,0.839569,1.552292,1.239585,2.689802,1.062584,-0.615055,1.317875,-2.994623,1.037885,-0.697773,3.994879,0.043539,4.284641,-0.669168,2.691859,3.691682,1.460336,-2.651664,0.435894,4.986465,-1.814094,0.203076,1.153323,5.427083,0.232622,-1.721582,7.507341,5.9248710000000004,2.5843410000000002,-2.813366,3.865679,9.290668,-0.667565,0.28515,-1158.852661,-70.967392,351.870575,-605.20166,-0.078301,6.243992,-3.253135,0.680083
stress15,L2,suffix,415_550,-4.870275,1.379881,-10.906923,0.972138,-1.155887,2.403935,-4.33813,5.842595,0.375035,5.989,-3.270489,19.754824,2.914891,5.062347,2.358399,15.105676,0.716145,3.540352,-3.622784,10.236598,-1.929276,2.990248,-6.262367,2.32918,-0.638534,4.661433,-6.968579,7.048421,0.073651,4.138632,-2.006444,7.330376,2.229435,-0.314218,6.672614,3.47788,0.225691,3.312569,-4.161779,5.217965,-0.448608,2.571559,-9.277022,4.163165,-0.632064,1.222406,-9.348399,3.388337,0.657284,2.181638,-6.598801,3.617873,-0.252424,1.04804,-2.236715,3.266522,0.76227,0.56912,-2.411459,2.663911,1.318756,0.163937,-2.034065,3.010503,0.601268,-0.871418,-2.722811,0.645977,-1.363079,-0.805824,-5.207088,0.807253,-0.900945,-1.538614,-1.643681,-1.345156,3.033746,-3.916128,12.69974,-3.757453,-2.513308,-0.910062,-3.470005,-3.509836,-0.949032,2.941986,-8.970785,1.377351,-2.345503,1.51022,-8.916848,1.43053,-3.236075,0.747388,-4.683142,-2.137041,-1.000661,-1.986704,-1.019706,-8.175145,1.397066,-0.912713,2.024349,-10.776839,-1.712297,-0.047665,-2.526195,-8.25805,-2.331997,0.659632,-4.177164,-0.322509,-2.55474,-0.726143,-2.92446,-3.890407,1.316406,-0.114157,-1.706568,-14.049671,-4.442848,-4.223924,-11.220684,-2.867707,-1035.696655,108.51844,375.715942,-659.474731,-1.754393,1.410116,-6.457449,0.09319
stress16,L2,suffix,415_550,-21.891739,-2.643631,-5.277186,2.293249,-9.12334,2.598868,-5.415023,-0.255106,-6.466282,0.644051,-2.60862,2.740551,-1.360384,-0.899549,1.112912,3.000427,-2.94786,0.719402,-2.592107,0.94153,-0.786355,1.602105,-4.480064,-0.850021,0.575878,1.792377,-4.283149,1.242391,1.125014,-1.634162,1.632186,1.813696,8.174603,-0.836811,8.084869,2.256805,2.874068,1.594326,-1.499294,2.093581,0.705218,2.634858,-2.253202,1.114857,2.275983,2.063326,-1.084186,3.885815,3.783038,1.660459,-1.426155,2.414988,4.609328,1.108544,0.721635,0.973178,5.898232,2.538405,0.936635,2.663775,6.002517,2.357113,1.644193,3.251041,3.15527,2.330824,-0.223581,0.418128,2.719756,-0.826917,-0.272236,1.602042,2.444037,-0.777823,1.070037,0.474688,7.906859,-1.968108,7.448834,1.817807,1.460167,-2.012623,0.354628,2.253973,0.532806,5.45e-4,-3.028059,2.336706,0.599276,1.356302,-3.126279,-0.245719,0.394852,-0.73082,-1.445103,1.981887,1.081935,-0.889934,1.275771,2.366987,-0.641063,0.415768,0.959115,2.796715,-1.488462,-1.055545,-0.803322,1.737341,-1.843693,0.707525,-4.006334,-1.936085,-5.708081,-0.59131,-2.752458,-0.386235,-5.505841,-0.415804,-0.90091,1.586939,-14.581956,-1.565951,-5.690491,4.395533,-810.316162,23.564772,275.742859,-656.57074,-5.360491,0.934974,-5.177903,-1.358205
stress17,L2,suffix,415_550,2.115444,-3.75884,0.226996,1.847346,-0.457671,-1.317011,-1.411554,0.726663,1.876293,0.515248,0.639194,1.129892,1.737822,1.933459,1.6608290000000001,2.767085,-0.031685,0.443215,-0.996304,0.722122,-1.076423,-2.800958,-2.07329,-1.843993,-0.469431,-2.800654,-0.03814,0.862102,-0.078159,1.358852,0.199902,0.844478,0.004694,6.67266,1.23392,1.856126,0.116565,0.869883,0.499302,0.810376,0.44357,-3.466124,-0.746023,-1.801428,-1.019902,-3.028615,0.88692,-0.517957,0.610921,-2.78466,2.758124,1.007489,-0.248732,1.63791,1.815139,1.911681,-0.218765,-1.109046,3.321446,2.014967,-0.258509,-1.122759,3.302209,2.0521,-0.23424,-0.870784,2.01282,1.409024,0.980439,-8.500124,1.738955,3.901036,-0.339535,-0.588826,0.931227,-0.354594,0.232641,4.167178,1.380439,-1.134863,-0.49995,-0.949485,0.79249,0.424724,-1.038682,-4.051413,-0.422943,-1.694399,-1.049543,-5.522125,-2.110894,-2.419353,-0.362031,-2.565845,-1.484825,-0.411073,-0.126678,0.228746,-0.437843,-0.42587,0.259833,1.557813,0.266058,0.728708,-0.533538,-0.933305,-0.718317,-1.188829,-0.095416,-5.29178,0.555809,-0.387954,-0.444484,-2.251973,-1.074391,-0.465703,-0.257509,0.273611,-0.603969,0.344879,1.790988,-1.837474,-0.938341,1.188232,-868.584534,69.875191,249.560944,-776.301453,-0.079112,-3.61328,-0.871453,-0.24042
stress18,L2,suffix,415_550,1.880736,1.265567,1.278634,0.981963,0.216581,-0.681741,0.621348,-1.11307,0.463553,0.135951,0.64749,1.187974,0.152238,0.135127,1.932779,2.56135,0.555847,0.352115,0.699241,0.676075,0.838643,-0.056498,0.885305,-1.106917,0.111407,-0.183688,1.043129,-0.770606,0.682098,0.274818,1.81728,1.819988,2.456105,1.772353,4.05843,5.499575,0.97941,-0.271039,1.571378,0.232114,-0.722208,-0.135467,1.543166,-0.316817,1.632233,0.325997,2.04982,0.638436,2.961829,-0.699351,1.164908,1.253959,3.386916,2.056378,4.397191,5.01817,3.882987,2.654407,2.97115,3.938328,3.006557,1.64686,1.196744,2.150098,1.716611,0.359761,0.234402,1.464692,3.947916,0.644363,-1.845692,-3.526334,-1.334289,-1.02974,0.58775,-2.1434,-0.822391,-1.592379,0.156546,1.517017,0.401414,-1.008252,-1.832636,-3.124784,0.787736,-0.411385,-1.82821,-0.556427,-0.531075,0.09081,0.897507,0.464948,0.021997,0.632787,-1.203831,-2.616557,1.1183,-1.859249,-2.879493,-5.509449,-0.976122,2.642455,0.095809,-0.322466,-0.472773,0.574398,-0.435419,-2.275886,-0.14679,2.640079,1.108165,-2.655097,1.330103,0.030086,-1.452746,-0.59535,-1.252296,1.125086,-1.581779,-0.151557,-1.261993,0.508244,-0.726103,-1.46908,-731.388489,126.351219,381.237885,-329.517975,-0.544573,-0.05999,-1.404992,-2.338865
stress19,L2,suffix,415_550,2.500635,2.573282,-0.610291,-0.410334,1.354678,1.241824,-0.486222,-0.720365,2.604988,2.635996,-0.669235,-1.628626,1.942929,0.644831,-0.398572,-1.038942,0.81561,1.156083,0.747175,-0.567181,0.264187,2.649281,0.643332,-0.487936,0.689454,2.489083,1.959772,0.568781,1.419862,0.387421,1.489875,0.872017,0.101884,0.544138,0.873432,3.075839,-0.438367,1.855553,3.317755,4.249777,-1.456462,1.872212,2.43844,1.592782,-2.441529,0.502127,0.948616,2.309318,-1.534349,2.02344,3.701673,4.670965,-1.47504,1.855117,2.843141,6.353559,-2.286984,0.302331,2.97123,4.066444,-3.362876,0.391292,2.429065,2.686635,-2.498643,-0.03178,3.472241,2.265443,-3.766607,0.391121,2.446322,1.32522,-1.879071,-1.173257,2.649631,0.129112,0.711453,-2.439726,1.216166,0.068057,-4.11816,-1.445871,0.449451,-1.177884,-3.39889,0.65341,1.526991,0.277024,-1.618634,2.385397,1.041255,0.947593,-3.226287,-1.002277,0.42848,-0.502071,-2.455616,-3.711228,-0.119577,-3.373986,0.243397,-3.204578,0.027997,-3.970778,-1.981346,-1.978668,-0.06283,-1.815168,-1.301339,1.576383,1.091429,-0.373192,-1.130763,-0.454613,1.098981,-0.93422,-0.002424,-1.152532,1.106496,-1.109713,3.272818,2.50713,-1.01923,-2.51728,-1190.435791,-375.077698,-83.9142,-1136.767212,-0.271108,0.631865,-0.696531,-1.047963
stress2,L1,suffix,415_550,3.5333039999999998,0.663417,0.520245,0.407927,-0.082341,0.516813,-0.936979,-0.705663,-0.118874,1.175383,-1.002219,1.430604,1.349899,-0.875816,-0.049261,1.351009,-0.179269,-1.064357,-1.39306,0.194273,-1.201082,0.163225,-0.039172,-0.833164,-0.913836,-0.094085,-2.159243,0.008499,0.386837,-2.275631,-1.266952,0.86627,3.786977,-1.840213,0.239749,4.696894,0.645501,-1.677648,-2.057546,1.327104,1.574908,-5.720616,-1.144282,-5.225685,1.978567,-1.063068,-0.784768,1.620392,2.508559,-1.108359,-1.6711530000000001,1.522304,2.84622,-0.635984,-1.890058,1.001761,2.862325,0.6309,0.112606,2.807482,2.31222,0.110417,-0.94271,0.694243,1.076616,-1.207528,-1.498798,-0.357973,0.695558,-0.002611,-0.980927,1.011721,0.587551,-0.319061,-0.13914,-0.226211,-0.085939,1.508407,-0.678082,-3.125359,0.238438,-1.029484,-0.943103,-0.532852,0.796867,0.739375,-0.849791,1.408466,-0.29593,0.440935,-0.602581,1.153608,0.875362,-0.072467,-0.429168,-0.484039,0.018442,-1.02146,-0.356917,-1.943045,1.210732,1.838257,0.188668,0.301475,-1.271809,0.736041,-0.208932,-1.431437,-1.523152,1.177181,0.364047,-0.043024,-1.400311,1.025268,0.321751,-1.60828,1.735324,0.866593,1.383295,0.238023,3.865642,3.314628,0.232715,1.662949,1472.618042,814.326965,483.61673,-355.154572,-1.233679,0.110602,0.146111,-0.523847
stress2,L2,suffix,415_550,-1.429116,-0.570945,-0.474678,0.11448,0.222294,-5.421437,-3.89801,-3.361973,-1.397177,0.409763,0.380693,-1.337876,-0.787034,5.253428,3.092429,2.024651,-2.277985,-3.804955,-1.642441,-1.865483,2.426185,-8.361123,-2.912989,-1.83628,2.208359,-7.94157,-2.057864,-0.612547,-2.104472,0.264875,0.927801,1.167817,-0.23763,6.997217,6.731264,2.645138,-0.491292,-1.848987,0.691721,1.506586,4.756993,-7.571771,-0.927474,-0.531195,3.359034,-4.424033,1.817843,1.354717,2.215394,-4.335714,3.296568,2.358658,0.005062,1.007941,4.676068,2.247471,2.911264,-0.381138,6.941911,1.066956,2.908396,0.258501,7.494925,0.795901,3.889843,1.481741,6.771298,0.975628,3.209087,-1.86976,0.825955,1.737672,0.781778,3.605597,3.906828,1.212741,-0.966541,6.003726,8.276658,3.047418,-0.474695,-1.108534,-0.688707,1.399866,1.872584,-4.642555,-1.158727,-0.47179,3.54305,-7.237122,-0.891979,-3.166625,-2.637031,-6.769305,-2.074057,-0.332373,-5.648238,-3.840453,0.945802,0.451597,-5.328395,4.290543,0.608909,0.161783,-5.869051,-9.569392,-2.247348,-1.452527,-0.299716,-6.009081,-3.654192,-2.016974,-2.406389,-4.249829,-5.051242,-4.599977,-6.65353,-5.534868,-1.192699,-2.974191,-0.72369000000000006,-0.370959,-0.801965,-1.545646,1887.075928,854.172668,632.60376,-366.203949,0.401391,-4.333647,-5.00264,-1.897519
stress20,L2,suffix,415_550,-16.276823,-8.719557,-6.539762,4.743288,-6.558369,-2.572138,-4.73544,-0.805638,-4.350034,1.178094,-5.78069,-6.300991,1.075458,3.47037,-2.186339,-6.557381,-4.485291,1.004585,-3.484248,-3.333805,-3.266691,-1.690614,-2.57465,-0.319499,-1.769311,1.570359,-1.458097,2.126584,-1.452413,3.308869,-1.483954,-3.579257,8.280588,6.202471,6.648984,0.485837,0.711723,2.959599,0.75764,1.119539,-1.05611,1.156268,-0.863957,4.812937,-1.569742,0.511451,0.278437,6.909645,0.850443,2.156876,2.434846,4.72926,2.34299,2.993632,4.760324,2.373503,-0.708178,-0.202084,6.036693,4.439007,-0.77468,-0.535341,4.632583,5.912203,-1.226825,-1.04439,4.39274,6.774586,-0.626201,-0.397919,0.005279,5.015552,-0.577457,-1.668527,2.47062,3.827915,7.889292,2.975479,5.096298,-0.219565,0.58076,-0.778069,-1.530583,1.79315,-1.73236,0.321102,-1.526827,4.695283,-2.062324,-0.967389,-2.408503,4.003306,-0.211163,-0.673987,-2.490396,2.304901,2.235746,0.098202,-1.81239,-0.768757,4.682756,1.766986,-0.877318,-2.27359,-0.393558,-2.014966,-3.877235,-0.468174,-4.191128,-3.270163,-3.389129,0.350691,-4.641096,-2.789184,-3.663905,1.402503,0.32733,0.189354,-3.489182,2.430158,-12.959452,-6.861265,-5.586651,7.810469,-653.316101,50.539261,145.319382,-637.671753,-5.38996,-3.059319,-3.915092,-0.088757
stress21,L2,suffix,415_550,0.28484,1.437264,-1.505812,0.361274,-3.32593,1.132709,-0.03689,0.411169,3.589353,0.534776,1.242041,-0.343965,2.823573,0.558692,0.060634,-1.158332,-6.730798,0.514397,1.387854,-1.389665,-2.933224,1.157959,-0.394109,0.888093,-1.40792,1.289085,0.445136,0.220487,-0.610009,0.019084,0.069748,-1.656761,6.541881,1.243494,-0.038643,-1.643791,0.94881,1.745353,-0.504558,-0.978077,-0.376575,0.454662,-1.07299,2.018885,-0.649217,-0.201409,-1.454228,2.101575,1.266024,1.63367,-0.428504,1.689215,3.258525,2.515749,-0.285905,0.814279,4.962754,3.087799,0.352363,2.373718,4.047483,0.691929,0.800415,2.468935,3.324627,-0.763614,0.369169,1.463589,0.060807,-1.389117,-0.998978,1.160101,1.984787,-0.704736,-0.61495,-0.116607,6.162402,-0.78079,-0.004743,-0.542368,-0.966523,-1.99889,-0.835401,-0.510783,-1.308582,-0.17906,-1.184744,2.241892,-3.854646,0.662071,-0.51003,1.07566,-3.343426,-0.951067,-0.239708,0.06903,-2.35864,-2.528887,-0.143889,-0.909532,-0.080219,-1.033848,0.801352,0.85391,-7.61351,-2.282565,0.26883,-0.655029,-5.27373,-0.345907,-0.333306,0.579255,-7.122851,-1.09586,0.502837,-0.367204,0.355496,-1.575326,2.541105,1.651476,-1.494251,-0.634722,0.253529,-1.572507,-616.730713,181.819504,388.960754,-708.635254,-4.234761,-0.154235,0.014462,0.72872
stress22,L2,suffix,415_550,4.316598,-2.604883,0.130697,0.18251,0.183714,-0.032726,-2.911937,1.016534,0.834676,-2.801607,-0.478641,-0.7678,0.038227,-3.493737,2.787966,-1.624708,-0.498684,-1.036157,-1.124088,0.638654,0.152322,2.648402,-4.329773,1.374689,-0.987177,2.791943,-1.128588,0.110308,0.143377,-2.658855,0.900342,-1.279127,-1.235764,-4.060798,5.895242,1.181332,-1.675298,-0.342199,-0.006592,0.272776,-2.201663,4.915209,-1.246978,1.263618,-2.876176,6.543051,-0.490166,2.910118,-2.239201,3.892308,-0.550504,2.070391,-0.887474,-0.942896,-0.397337,1.239987,-1.692277,2.650246,-0.514381,4.299534,-1.497492,3.821303,-0.202449,4.178657,-1.467102,3.615278,0.316322,4.526212,-2.513614,4.224258,-1.286329,2.804502,-0.521903,1.44493,0.931805,2.870152,-0.725173,-1.654639,7.811102,-0.176719,-1.868394,1.696417,-1.069226,2.230266,-2.092186,5.865471,-1.815752,1.67718,-1.282607,4.945462,-2.48859,0.885849,-1.512869,3.355162,-3.277306,2.246073,-1.132519,-0.7839,1.720075,1.076438,-1.400818,-1.74497,3.141367,-0.628453,-2.545806,0.424334,-0.595783,1.789873,-0.583652,1.825153,-5.133842,1.630923,-0.732367,0.04091,-3.420625,1.821938,-2.101245,-1.4659469999999999,1.134658,1.376839,0.748007,-2.391939,-2.126418,-0.170184,-640.031433,84.887192,346.796936,-760.272095,0.653646,1.905146,-4.568783,-0.334872
stress23,L2,suffix,415_550,5.230434,8.92648,-3.247283,1.453774,2.759564,5.069612,-4.797473,-2.022795,3.183979,15.36497,-3.140914,0.659794,1.75922,12.521194,-1.524852,1.291227,1.991717,5.929763,-5.702246,-3.118794,2.623801,1.325218,-5.332232,-2.641145,2.531359,2.310009,-4.51563,-2.765067,3.532068,6.142816,-2.669119,-3.595416,-6.343086,3.221439,10.110772,2.836975,8.707131,3.908359,-4.94487,-1.497943,1.546937,0.559532,-4.004795,-0.921883,3.606645,-1.345731,-1.890314,0.74804,3.869027,-0.415307,-1.261002,-1.519315,10.20872,1.666379,1.671774,0.938703,5.505356,-2.015549,4.886351,-0.163945,4.297329,-2.459025,2.932384,0.158623,4.30133,-2.750177,3.055008,-0.343344,4.007079,-4.267291,-0.990499,0.563811,5.30689,-2.015443,11.889215,3.159249,1.259992,-3.863773,5.914528,2.230111,6.295677,-4.724773,-2.211693,-0.986515,3.207226,-2.735857,-4.715834,0.543935,1.586408,-2.554799,-5.626383,-0.742748,3.76137,-4.117515,-3.046072,-0.784797,-2.941576,-0.479375,-1.955586,-3.206211,-0.556759,-7.54043,-5.356226,1.292168,3.459986,-6.488499,1.546287,0.274589,4.83505,-2.834504,-4.593831,-0.547938,1.682596,-0.774738,-4.992128,-0.849423,-2.020755,-12.068826,-3.061279,-1.603162,4.989185,0.217406,0.183033,-0.02676,-438.752228,-58.647739,257.984344,-980.914856,1.694368,0.214106,-5.341766,-1.689031
stress24,L2,suffix,415_550,-2.523339,-2.680188,-6.22513,-1.175356,-1.719364,0.124952,-1.005989,-4.448913,-1.746228,0.724428,-0.351869,-1.303173,-2.243262,-1.678833,3.740606,-1.063881,-0.286461,0.36140099999999997,0.945333,-4.641123,-2.586358,1.101419,-0.859307,-4.754955,-0.876841,0.649789,-0.130119,-5.664095,-1.219005,-1.311431,1.686497,-2.249524,7.146407,-0.317639,4.536075,6.113394,3.78623,-0.303109,1.270084,-1.073406,1.38077,0.647833,-1.111764,-3.205967,1.704076,0.28567,-3.199187,-3.134794,4.521657,1.472365,0.350366,-0.452558,7.138741,1.466121,3.580297,3.025433,5.129929,0.066935,-0.098464,3.804242,4.080527,-1.656039,-2.351738,1.510008,2.771113,-1.777787,-3.873202,0.809878,1.433147,-0.180412,-3.895811,-2.149946,1.817921,-0.524169,-3.219395,0.187829,3.017423,-2.408147,-0.901931,4.344822,0.178889,-0.136136,-4.549149,-3.979272,-0.866619,1.075885,-3.824709,-6.166723,-2.707486,1.609642,-1.93824,-5.833743,-0.732808,1.478748,-2.723572,-5.17346,-6.146227,-2.547368,-4.967212,-4.089975,-6.231992,-2.212558,-1.650255,-2.10645,-3.225424,0.858463,-2.902047,-3.272815,-2.811148,1.350132,-1.878709,-5.16833,-4.112207,0.61112,-4.18955,-1.315925,-4.025943,-2.047082,-0.747541,-3.899751,-4.107934,-3.710282,-10.178458,-3.640589,-427.691437,176.738403,371.071106,-492.228516,-3.387942,0.908595,-1.211381,-3.486073
stress25,L2,suffix,415_550,-3.439951,-3.593327,-1.696256,-2.081814,0.593821,-2.042529,-0.258384,0.384363,0.984607,-1.261625,1.173841,2.821157,2.237602,-1.250218,0.032442,2.667415,0.924115,-1.469115,-0.204626,-0.188564,0.238472,-0.243125,-0.70586,-0.505142,1.085122,0.454588,-0.562174,-0.227249,-0.495863,-1.408725,-0.446438,1.085121,3.093745,3.785832,1.667339,1.978295,1.8605,0.142673,-0.030406,0.782527,0.717612,5.57e-4,-0.615717,1.533162,-0.473521,-1.212319,-1.188367,2.420888,1.919614,0.009852,0.857092,3.003433,2.944301,1.395234,1.47059,2.573462,1.669582,0.187721,1.267319,3.463803,0.556271,-1.041546,0.081163,2.828586,-1.023143,-0.246288,-1.972492,1.802853,-1.553767,-1.648418,-2.118737,1.122683,-2.003438,-0.065109,-2.758748,1.295085,0.626242,4.117835,-0.183767,2.098481,-2.143645,-0.288165,-1.819246,-0.72766,-0.461232,-0.680976,-2.426316,-0.52091,-0.532999,0.495139,-1.560495,0.729955,-1.654422,0.028038,-1.41083,-1.153654,-1.735084,0.335744,-1.060069,-1.612316,-2.433158,0.384888,-0.664025,-0.695669,-2.343168,-0.006576,-0.842615,-1.433395,-1.093488,-0.63901,-0.04656,-1.418182,-2.455366,-0.461576,-1.048481,-1.747443,-2.751319,0.491141,-0.530442,-1.715162,-4.003834,-4.381948,-2.728737,-5.399929,-485.296021,25.84411,316.832672,-721.057129,-1.239996,-2.634555,-0.494524,-1.358924
stress26,L2,suffix,415_550,5.220557,-11.215724,14.923803,-10.588289,0.642059,-3.496092,2.324462,-2.420545,-2.878672,-5.979062,-0.856691,-0.265643,-4.59592,-3.387695,-2.274473,2.896985,-1.520251,-3.103832,-0.890963,1.431247,1.581554,-0.791813,2.974886,-0.03407,0.71158,1.111895,3.952799,0.362076,-2.268065,-1.65506,-2.443857,2.526639,-2.583308,1.109071,-3.00497,5.150438,-0.431265,0.591121,0.31557,1.215605,0.846612,1.908468,3.956088,2.436753,0.123899,2.99953,4.66244,2.004366,1.019376,1.506448,1.817138,1.963498,-0.870839,-0.132913,-0.119156,2.171601,-1.031615,0.883672,-0.129589,2.121655,-4.161058,0.396113,4.521567,1.583689,-0.965092,2.266214,0.030363,-0.308543,-0.06638,3.006628,1.930915,1.076021,0.122414,2.25385,0.388336,0.193647,-0.51045,4.375065,-2.857402,3.69678,1.134466,2.385909,0.49262,-1.825865,3.651175,0.919357,2.329292,-0.093043,0.443394,1.141227,4.161644,0.140985,0.500067,1.402022,2.721308,-1.187997,1.373739,2.076253,0.345683,-0.566302,2.67358,1.806971,-0.150542,-4.434576,2.638026,-0.723573,1.595408,-5.175279,0.539699,0.005552,1.991864,-1.59588,2.382214,-1.529103,1.610469,-6.072545,5.554558,1.30286,2.468153,-9.323083,14.06619,-14.058681,8.742858,-11.798764,-406.579437,14.218014,226.162064,-627.075134,1.031253,-1.828046,1.954124,-2.949072
stress27,L2,suffix,415_550,28.573931,20.42803,-35.561069,3.457993,31.599178,-6.33484,4.255113,10.009904,78.325043,-24.720268,24.656328,20.737383,39.708965,-20.570234,22.953693,7.961067,46.645939,-8.894909,14.853463,8.01616,9.095121,-4.68034,0.412582,5.388664,12.392094,-9.828058,4.912805,5.21961,26.918505,-8.336739,12.709291,2.174889,6.134796,-9.009427,14.19188,-2.577893,12.348045,-7.033983,5.223427,3.221986,5.477469,-5.051638,1.284434,4.975121,2.362923,-3.48307,-1.291418,5.378883,6.317045,-5.754658,2.075884,4.981713,8.026572,-5.849684,3.940041,2.100677,2.411517,-5.017112,0.802252,4.138869,0.481712,-3.747299,-0.002195,4.471967,-1.583012,-2.003155,-1.351588,3.2269,-4.293285,0.236275,-2.588841,2.848496,-7.66014,1.73624,-2.005377,0.015324,-14.771412,0.947797,5.021871,-6.525691,-11.540998,4.380045,-4.31372,-0.019849,-3.798292,-1.000634,-3.670912,1.835455,0.514783,-2.908542,-3.106231,4.470191,-12.890721,5.127968,-7.112394,0.261691,-22.542887,10.588446,-5.997849,-5.752873,-39.318882,17.091431,-9.937562,-14.507642,-31.38031,16.891436,-9.563093,-8.482374,-6.807118,2.220987,-5.92047,2.220517,-15.383913,12.526847,-14.059558000000001,-2.142996,-55.242577,33.378609,-22.885704,-17.007158,14.248446,17.881573,-32.972569,5.035832,-1653.187988,-208.091217,541.536743,-579.564758,2.878871,2.687209,-6.404583,3.034529
stress3,L1,suffix,415_550,-8.048141,6.35708,-15.082212,-22.327662,-3.036617,3.789654,-3.088578,-8.613579,-11.004114,7.454144,-3.015043,-9.708748,-7.099963,1.151745,0.950569,-2.480691,-5.795699,1.78511,0.683594,-5.85789,-1.240842,0.983578,0.927338,-6.062235,-1.70462,-0.163391,1.071192,-5.119558,-5.700325,-0.743799,1.439763,-2.594246,1.14856,-2.070234,1.193633,10.768219,-2.297765,-1.325337,2.504617,-2.131278,0.548614,-1.044112,0.220579,-4.884008,2.802206,-1.499225,-1.210162,-3.937533,0.730202,-2.171824,2.155766,-3.461782,-0.223296,-0.009437,4.537978,-1.518219,2.787927,-1.893819,1.336525,-2.75093,3.083635,-2.926925,-0.051416,-2.241071,2.686344,-0.56024,-0.10407,-1.365456,3.478361,-1.661876,-1.41277,-1.712122,-0.579112,-2.385456,-0.314751,1.419257,1.313422,-3.152523,1.698123,9.317163,1.404884,-2.003657,-1.22025,0.582556,2.757117,-1.22808,-1.393913,-2.36525,0.591787,-2.036589,-0.067487,-5.121614,2.801833,-1.023387,-1.138388,-2.121408,-1.520984,-1.151161,-2.638227,1.272711,0.319014,-1.946689,-0.905794,2.47457,0.893834,-1.267143,-1.712907,0.410073,1.298867,-0.568733,0.182936,-4.359986,-1.144249,-0.730869,-2.999032,-3.521204,3.10985,-2.476081,-1.664184,5.359857,-5.533462,6.195866,-10.567157,-17.228548,2638.895996,2002.405762,1116.520752,-440.69809,-0.82066,1.740918,-0.963919,-6.69513
stress3,L2,suffix,415_550,-3.190101,-0.534769,0.636114,-3.9588,-1.617238,-3.647584,-1.077718,-2.216024,-0.686279,-1.694432,2.355843,-4.511007,2.029245,0.329351,1.719785,-0.857761,-1.137743,-3.296129,-1.155319,-1.563849,-2.917998,-4.498921,-0.790945,-2.288834,-0.755261,-3.626673,-0.102984,-1.575839,2.81026,-2.098227,-0.228452,-0.561865,7.932077,6.498462,0.188174,5.91627,1.919003,-2.258127,-0.223978,-1.311231,-0.080781,-3.416795,1.030725,1.02903,-0.278934,-4.158977,1.394877,2.859263,2.336539,-2.628737,0.129944,1.410291,4.395096,-0.029878,-0.336889,2.475132,3.387794,-1.019949,-1.396356,4.78065,2.475648,-1.568011,-1.513328,4.249119,0.604451,-1.329209,-0.642527,2.938017,-2.140106,-2.591804,-0.074781,0.123795,3.289966,-1.497289,-0.600886,2.324892,3.618221,5.864386,2.568241,5.534174,-3.11014,-3.079868,0.236248,-1.512755,-2.79447,-3.040864,-0.012862,-0.306239,-2.703485,-3.864278,-0.289503,-0.369745,-4.294955,-2.858923,-0.683041,-2.025086,-2.869024,-1.676463,0.291791,-1.394882,-2.446545,0.569345,2.668385,1.429083,-4.453901,-2.18672,1.238405,-1.372653,-4.514637,-4.537896,-1.707286,-0.733828,-7.015973,-4.059595,-0.498627,-2.397047,-5.348408,-1.966289,1.505865,-0.261805,-5.539027,-1.792938,-0.573673,-1.872563,1774.181885,1050.365967,633.724304,-312.708893,-3.850099,-4.12095,-0.918805,-3.816815
stress4,L1,suffix,415_550,0.176696,2.838234,5.994508,3.0437,0.090815,5.070101,2.780188,2.276982,5.027806,2.801568,3.928656,-0.299738,7.676552,1.940593,1.609697,0.093248,-0.491137,6.789854,0.195372,2.162604,-0.950706,3.22362,-1.17103,1.659268,-2.880679,2.789797,-2.032913,0.780073,3.881529,0.842246,0.783305,1.102409,0.141406,-4.128931,2.263085,-4.381034,-1.979117,2.282465,0.649462,1.446365,-3.631805,0.302601,-1.864109,1.809363,-3.339152,-1.3056,-1.403687,1.343153,-3.222103,0.380137,-0.060377,1.649276,-4.144033,1.83438,2.351996,-1.651205,-3.135677,-3.119495,6.067577,-2.356653,-3.196975,-3.134302,6.186551,-2.360436,-2.291069,-6.831732,-0.681957,-6.809995,-4.598808,-1.151042,-2.222463,0.438423,-6.111585,-1.587385,1.855191,-2.518263,4.204244,-7.011755,-0.015712,-4.556335,-7.447824,-0.964168,0.76412,-2.826088,-3.342076,-0.634294,-2.758346,2.242487,-2.192524,0.228459,-1.87602,0.965617,-4.278577,0.59779,-2.022552,2.201094,7.683485,-1.411052,-2.363158,-1.129634,7.893122,-4.671156,3.02672,-0.927542,-0.095113,-1.335215,2.258769,0.85364,-0.842709,3.177306,-0.630308,1.971098,-3.130383,0.500066,7.02436,5.701309,-2.242795,3.618675,5.239013,4.079335,1.199714,3.353222,6.422459,1.680346,2282.705322,1673.01001,1583.477173,568.090515,-1.448552,3.713567,-0.749126,2.979121
stress4,L2,suffix,415_550,-0.421201,-2.174013,-1.464749,0.468165,0.54205,-1.448484,-3.443356,-2.558839,1.875392,-1.170097,-1.880374,0.94141300000000006,2.858225,-0.602865,-1.370868,1.720221,0.032455,-1.985405,-2.984824,-1.23106,-0.929678,1.788529,-3.855566,-3.536264,-0.507861,1.222676,-3.791686,0.146242,1.434158,-2.708888,-3.220519,-1.190374,5.211184,0.790021,3.137641,3.449483,0.586735,0.451879,-3.932205,-0.897076,-1.991821,-0.54168,-1.874233,0.399961,-0.938983,-0.253838,-2.186575,0.706642,-0.362118,1.311047,-3.784646,-0.153996,1.036552,0.340572,-2.810365,-0.756169,0.359045,1.258351,-2.655133,-0.077385,-0.733046,0.278033,-1.548413,-0.368008,-0.861961,0.355184,-2.067901,0.273713,-2.846225,0.375713,-5.575056,0.335484,0.222999,1.249515,-2.47963,0.512533,6.702215,2.952189,0.766601,2.541038,-0.452035,0.313496,-2.540293,0.233871,-4.036297,-0.917425,-1.014328,0.303761,-4.190561,-1.339836,0.190419,-0.028847,-2.920252,0.066266,-2.326829,-0.614201,4.762084,1.226957,-0.755602,-1.298945,2.402764,0.380274,3.997968,0.775832,-0.71085,1.069093,-1.884151,-1.172554,-4.991984,0.733445,0.616736,-0.752048,-5.024683,2.016425,-3.078492,-0.562163,1.974397,0.509933,-1.507491,-1.25122,1.590257,-2.990905,-3.542265,1.802081,1856.749756,826.878601,642.265015,-136.196609,-3.971132,-1.247404,-1.301415,-1.996841
stress5,L2,suffix,415_550,6.234131,-20.756151,-26.021549,4.003919,-0.155179,1.501963,3.005734,0.215317,3.690932,5.69518,5.459887,2.074449,2.785875,4.911786,2.712276,2.714025,1.387876,2.54057,2.72107,0.038675,-0.04925,-0.046116,2.444286,-1.122401,0.983397,-0.412764,1.281197,-1.445116,3.090852,3.489876,3.110431,1.662456,4.255393,1.530987,-2.902425,2.926699,1.389096,-0.331132,-0.208572,-1.765096,-0.154996,-1.635022,-1.227109,-3.155165,-2.776574,-3.737304,-3.114211,-5.053627,-0.977962,-2.501201,-1.862517,-4.332335,0.638399,1.434819,-1.824482,-4.025425,-1.760224,-2.653204,-3.176023,-6.009652,-4.514987,-3.935999,-3.188071,-5.824296,-3.132326,-3.287049,-3.152707,-5.373245,-2.910048,-4.352327,-3.138843,-4.16186,-3.435856,-3.073552,-2.323539,-2.238605,-0.512453,-3.348686,-2.402147,1.032956,-1.515556,-3.453827,-2.750207,-2.799115,-1.562311,-2.247724,-1.186414,-3.336587,-0.173709,-0.035909,2.036312,-1.312216,-1.898022,-3.064288,-0.380077,-2.462559,1.140186,-1.014467,-1.325966,-1.872055,0.195864,1.862462,1.256209,-0.526101,-2.312917,-0.748627,-2.486434,-2.769753,-0.724349,-0.840647,0.603142,-0.894917,-1.873119,-0.178943,-0.248927,-2.023742,-1.085307,0.10461,-1.877754,-1.560313,4.655687,-0.690221,-6.297553,1.489171,2003.910889,1081.331055,802.923645,-378.741119,-1.247647,0.605898,1.76819,-1.319885
stress6,L2,suffix,415_550,-0.701062,2.082031,2.085211,-6.409292,1.487733,-1.34122,2.2122830000000002,-7.930098,0.981964,-2.437147,0.86293,-2.243609,1.338502,-0.997538,2.046775,1.832429,0.994281,-0.057618,0.677398,-3.473761,0.699335,0.933465,2.361145,-6.740601,1.766419,3.199366,0.851499,-3.448829,1.857081,0.697876,-0.623094,0.986104,2.338948,-0.356171,-2.772168,13.299599,2.084726,3.015022,-0.377306,-0.010462,0.968911,2.561148,0.358074,-2.797667,0.187902,1.754262,0.072468,-1.134692,0.834687,2.30172,0.021474,0.291884,1.01147,1.55384,-0.495606,4.310845,-1.066683,-1.463587,-1.761106,3.238008,-1.5158,-0.565179,-2.744756,2.204085,-0.670493,-0.345538,-3.093686,0.132447,-0.018901,0.97138,-1.440001,-2.0654,-1.179213,1.240135,-3.884749,0.407324,-0.591862,-0.351696,-7.690969,10.909635,-0.525363,2.167943,-1.84944,-2.847631,-0.165521,2.061305,0.031428,-3.967318,-0.447453,1.996678,1.878699,-4.875145,-0.865124,1.486493,1.424666,-5.462516,-0.814864,2.317218,-1.428453,-1.243203,-0.07527,1.676706,-1.050732,-0.865013,-0.761657,1.744561,0.017228,-5.17026,-1.268059,1.994569,2.921072,-7.509953,-1.462272,0.729144,1.903543,-8.46303,-0.284352,0.232297,-0.442334,-3.215895,-3.407393,-0.079397,-0.910776,-7.182491,-1231.841064,154.335205,287.325867,-726.819641,-0.582362,0.235956,3.487713,-8.069744
stress7,L2,suffix,415_550,0.132508,-11.531995,-0.124889,-9.575624,-3.055382,-6.151922,-6.72283,-7.519009,2.36599,14.578044,-3.343607,1.000955,1.214617,-11.628913,11.815676,-4.751822,3.272624,13.199283,-14.239106,1.842457,-1.793718,-5.095262,-4.618875,-5.393403,-1.843245,-4.941331,-6.237446,-4.4186,4.236627,16.669136,-3.857836,5.294437,4.949893,6.438176,6.480642,8.000145,-0.545734,-2.110774,-2.354686,-3.49357,0.629303,-2.693312,-4.116858,-1.977018,1.321591,-3.232585,-3.030119,-2.099121,1.59313,-1.599623,-2.523432,-1.627109,1.564485,-1.458658,1.378363,-0.345507,1.4833,-2.450518,0.275079,-1.676319,0.975635,-2.403082,-0.679454,-1.416721,0.542723,-2.840261,-0.803462,-2.145216,0.927314,-4.720656,-3.1426,-2.395711,-0.424071,-3.135042,-0.806669,-1.280769,2.120211,13.4468,6.030316,8.727047,-0.859101,-4.947086,-5.553548,-5.493609,0.617921,-4.620432,-4.427947,-3.06139,0.334666,-3.851436,-3.066934,-3.211566,-2.644353,-7.946931,-7.07789,-7.554461,-0.383784,22.144815,-9.352374,9.212083,0.428366,-9.868168,6.514243,-6.211465,-3.305276,8.243969,-15.090507,-2.115673,-0.340208,-5.957278,-1.666949,-5.331969,-3.400921,-6.449534,-6.918265,-6.769166,-0.778037,7.23752,-8.641602,1.177029,-0.306888,-12.355767,-2.166955,-6.976088,-1101.716309,-140.98201,174.414444,-954.879395,-2.356702,-6.62833,-4.17032,-5.575735
stress8,L2,suffix,415_550,-12.61713,-1.61412,0.385322,-0.337269,-7.075955,-1.419492,-0.519617,0.102123,-12.378772,-0.643326,3.264859,5.630617,-2.728527,2.700697,2.659839,-0.350808,-4.372199,-1.388244,2.962843,-0.127556,-3.056008,-1.770748,-1.562134,1.45076,-2.202658,1.485827,-2.18394,0.301219,-1.633591,-1.129311,-0.819677,-0.024338,5.770941,3.444788,0.76304399999999994,-2.543313,-0.350756,-0.5127,-0.140328,-1.448367,-1.649074,2.092319,-0.89183,-0.788042,0.263675,0.221241,-0.634576,-0.873999,0.994417,0.343739,-0.469607,-0.257746,1.256514,0.586894,0.7204,-0.465084,2.289976,0.510644,1.219316,-1.39232,3.021245,0.399539,-0.694206,-3.020533,2.676063,-0.918906,2.276,-0.8479,0.09127,-2.379151,-0.132063,-1.404565,2.335464,-1.952152,0.588295,0.502046,9.82688,0.154101,5.063678,1.800451,-0.157897,-1.507792,-1.089681,-1.541867,-0.491444,-1.299787,-2.106666,-0.957408,-1.720819,-1.984388,-1.861517,0.617901,-0.350074,-2.312288,-0.780071,-0.240099,2.569014,-1.792017,0.481266,0.200427,7.368905,4.996157,3.275352,3.796888,2.098726,-0.951421,0.56303,0.10986,-3.137889,-2.346897,-3.616508,0.554186,-3.937767,0.429985,0.412418,-0.488739,4.505661,-0.085978,3.026036,2.680621,-8.370366,-3.303255,-1.205341,1.327126,-642.144348,154.022964,161.566223,-668.084229,-5.199274,-1.199634,-1.942241,0.247621
stress9,L2,suffix,415_550,2.724393,-3.205273,4.379119,-0.847336,3.482836,-0.578761,2.202571,2.255148,2.051294,-0.836182,4.519187,0.466911,1.215179,0.650603,3.742765,0.684728,1.029536,0.792135,1.125617,1.222977,4.709644,0.92461,2.297744,4.924933,3.900712,2.81472,2.187113,4.022018,1.245232,0.244116,2.948672,-0.088156,-1.893029,-4.211996,5.856072,-2.101033,2.134446,1.87742,2.698322,3.243329,3.860104,2.327368,3.848994,6.332963,1.938873,1.271238,1.891108,6.250419,3.030163,1.72359,3.253618,5.021029,0.905768,1.174442,4.442051,2.302212,-0.276588,1.495404,2.193857,4.610835,0.163369,0.77172,-2.026368,4.834227,-1.466313,0.237063,-0.787448,3.637879,-0.369543,2.665437,-1.00297,2.980718,-1.880818,1.229439,-2.525071,0.273374,-3.271374,-8.973218,2.098084,-4.829731,0.059207,0.995738,-2.435168,-0.698431,2.389932,0.55309,2.912183,3.586516,5.025339,1.823122,3.977534,6.158713,2.082564,1.285372,-0.151925,1.353557,-1.733727,-0.655161,-3.855033,-4.97952,-1.505355,-1.219519,-1.420967,-6.268304,1.31697,0.725807,-2.36555,-5.494544,3.926698,0.045664,2.651397,2.1405,2.931714,-0.402458,1.558551,-3.199925,-0.029197,0.091095,0.068614,-5.214489,2.165787,-0.257574,2.644607,1.934083,-1026.55957,274.019867,287.427917,-838.565918,1.721467,4.395072,-2.651387,2.310254
stress1,L1,suffix,550_680,-3.53659,13.326999,2.698477,-4.746423,-4.410237,9.692927,2.800985,3.359388,-4.768046,5.853181,0.300022,-16.649906,1.973547,5.985878,-6.362444,-7.006917,-1.825739,7.483188,2.184984,4.250694,-3.725556,4.777139,5.050253,5.678258,-3.346081,8.779399,2.78178,4.161928,0.016116,7.656934,-11.481624,-1.750764,3.759886,-12.079628,4.275368,-0.322604,-2.965375,14.479277,-2.017923,-0.554975,-2.142226,5.450258,6.162641,4.593226,-2.074361,6.760171,6.360507,2.760116,-1.322534,6.977196,4.308438,5.349826,1.316573,13.081349,1.270134,-6.65622,-0.093422,7.344175,9.313106,1.607643,-3.592793,4.755729,2.681932,-0.202694,-2.419446,4.687611,0.045594,-3.470249,-1.493885,7.264517,8.922416,3.017954,-0.57338,6.880384,-0.520717,-3.02,9.338367,-18.136129,-10.797713,-5.33955,-2.515617,12.410279,-2.543492,-3.641033,-2.034693,6.48003,4.474844,4.94506,-4.729782,6.099301,5.991664,4.220304,-2.919071,7.928226,6.074152,5.637456,-3.858376,10.369776,-13.809679,-6.739475,-4.378015,22.332195,-7.996948,-4.98147,-4.655868,17.040018,-2.543048,-5.244061,-3.972706,7.458796,3.471777,3.323331,-5.050088,15.215935,1.753635,1.391681,1.045995,19.541962,-45.38517,-28.410713,-7.143074,8.97738,-3.509134,-3.345473,1544.174805,114.33197,750.068481,1684.543945,-4.366083,10.071916,2.174113,1.887383
stress1,L2,suffix,550_680,5.037858,-4.223219,1.647029,-0.970006,2.141902,-3.178974,3.50972,-0.788538,2.800158,-3.559813,1.856091,-0.984334,1.866328,-0.750847,0.478364,0.03584,1.433543,-3.377589,2.338915,-0.461033,0.825671,-3.654276,5.145759,-0.430388,-0.224,-2.500356,5.064786,0.809864,0.635454,-1.096902,-0.190332,-0.389326,0.052393,5.799034,-5.533699,0.21923,1.420907,-0.804713,3.955187,0.863435,-0.913215,-3.132052,4.703346,-0.531514,-1.703177,-2.756302,4.022075,-2.29643,1.055186,-1.735013,3.555875,-0.140883,3.757566,1.662447,1.142978,1.799447,0.251106,-0.189894,1.13857,1.204352,0.103687,-0.858408,2.220294,0.536301,-1.043592,-3.204739,0.849254,1.0172620000000001,-4.121223,-3.976859,1.615497,0.397512,-3.634434,-3.614863,0.211079,-0.175411,-3.651803,2.375714,-5.071509,-0.358564,-4.706517,-3.655717,-0.803876,0.009973,-3.793281,-3.811641,3.021448,-0.790316,-1.057875,-4.338415,5.39977,1.234936,-2.191517,-3.055587,1.370405,0.421907,-4.97931,-1.52112,-0.961956,-1.329411,-4.83084,0.989561,-1.671691,-1.435921,-2.350063,-1.524115,0.630625,-1.145215,-1.03532,-3.411711,3.617977,3.757454,0.705847,-2.568708,3.097924,-0.290468,-2.561948,0.669823,-0.806378,-1.032858,4.657988,-2.22071,1.201914,-0.990836,1775.362061,905.532959,1189.806152,1278.034668,1.199803,-2.724916,3.535071,0.046445
stress10,L2,suffix,550_680,-7.941738,6.074817,7.956547,-4.34266,-5.59284,0.067686,-2.900598,-6.188064,-3.469981,3.078043,-16.157251,-10.77658,0.23108,1.91099,-12.926874,-4.341758,-4.519182,1.239007,-8.891877,-5.688,-4.383767,-1.211825,-0.048255,-5.010028,-0.820855,1.567858,-1.957603,-1.719189,-1.396022,2.99214,-8.012046,-2.30413,8.808788,4.399086,-6.457949,2.728763,1.86146,3.672172,-3.009142,1.605157,-0.107046,0.883955,0.128032,0.01344,2.833037,0.098851,1.46851,1.984437,3.565271,3.187823,0.459973,2.661449,5.379999,2.661986,-2.430419,1.541504,8.808664,3.331039,-2.413748,0.393733,8.389037,-0.154383,-2.033698,2.23656,7.070221,-0.86271,-0.143121,1.921474,3.959781,1.675804,0.449926,1.738522,6.517698,-0.610898,1.14777,1.890771,9.940579,-0.74493,1.168111,5.27209,2.857724,-0.937249,2.969491,2.426808,1.769005,-1.071694,2.102472,0.944385,-1.592858,-0.97613,2.28481,-1.684649,1.837231,-0.915611,3.963508,1.402316,2.157515,-2.335784,3.748825,5.709219,2.371835,-5.292007,6.612232,7.802809,-0.748152,-3.142987,7.056528,5.622083,-2.809847,-1.964181,2.892007,-1.051074,-2.406037,-2.341737,7.182567,0.623661,-0.004943,-6.219584,13.79288,9.965088,-6.892038,3.250761,8.332661,1.131338,-218.206207,-495.274506,1011.008789,1094.322388,-6.24979,-1.218051,1.763279,-2.66695
stress11,L2,suffix,550_680,14.341816,-6.717343,-14.590173,2.337005,-10.130388,-4.481311,-4.598148,-4.86222,-40.555077,-29.089041,-16.536741,-38.570068,-36.75124,-16.60956,-8.115218,-29.849497,-17.526705,-9.259921,-5.201191,-14.072993,-0.438422,-0.201944,-1.341062,3.78574,-4.203223,-1.990775,-2.293027,-0.338842,-20.007421,-9.308217,-6.279471,-16.964212,-26.299646,-9.332229,1.548949,-23.166233,-8.951359,-3.41526,0.160606,-4.721661,2.833813,2.047682,-0.35999,2.9242340000000002,3.479793,4.473377,-0.758565,4.7812,1.347992,-1.053307,1.36251,3.617462,-8.518964,-4.482955,0.488222,-3.429478,1.816461,3.58224,5.418971,0.666998,1.320525,2.648862,3.389596,2.131769,5.721231,3.395772,5.65287,4.974019,7.762296,3.174856,-0.412199,10.448938,11.062887,6.9066,3.55629,8.850266,2.64981,1.620373,4.047906,-5.438056,12.139594,7.598863,2.900593,11.758448,8.284442,5.414746,0.083849,8.712761,5.744446,3.24788,-1.320937,6.306304,12.075609,6.282507,-0.141216,10.797447,15.65291,6.862231,1.884086,14.672029,34.222012,15.775207,8.265712,29.118444,27.604603,13.784358,6.620839,24.642616,8.024479,3.981139,-1.392578,10.506338,28.078199,10.27941,-0.461205,22.873966,52.477051,22.175537,13.088329,46.859753,42.648834,-20.761402,-12.28786,22.482689,-312.809174,-454.541443,567.170959,987.022522,7.883279,2.570621,-1.865618,9.534764
stress12,L2,suffix,550_680,0.783771,-2.910538,-0.383303,-0.154104,3.155944,-3.72937,2.090713,1.452458,0.367625,0.671112,0.542978,2.646063,3.016885,1.470312,-7.230197,1.719036,3.147869,-1.281687,0.640438,3.035257,4.351277,-3.460163,3.004961,1.133658,6.247451,-1.442765,4.21249,1.897382,2.118335,3.258693,2.020113,5.253181,-4.794341,10.098646,-0.261816,-2.162397,2.545228,3.866049,4.624187,2.791698,6.130513,-0.487873,5.816293,2.365556,5.501529,-0.767999,6.432964,-0.766962,7.050855,3.29021,5.757115,1.8996170000000001,3.299628,3.913738,1.621741,2.114744,2.032501,5.846615,5.254842,-1.668307,1.844368,1.429234,1.874034,-0.918847,0.794904,0.492426,0.723776,0.088653,2.982542,-2.136032,4.119503,-2.645067,-1.381709,-2.75556,0.357055,0.60016,-5.282276,5.846864,-3.360687,1.716906,0.100509,-2.92732,1.292786,-0.990423,4.392286,-3.54524,6.196747,-0.724392,5.84278,-2.153129,5.10074,0.601302,2.591203,-1.919715,2.421828,-1.894638,1.828574,-3.190094,0.26663,0.54077,-1.249051,1.607826,-3.555654,-3.538892,0.73213,-2.515168,-0.737012,-1.18736,3.727383,-5.039153,2.716245,-0.548342,1.297484,2.632168,1.247402,-2.285182,3.006092,-7.521818,0.503728,0.108342,2.214017,-2.926698,-0.911577,-1.309396,588.474854,-485.204163,613.651184,1379.965454,3.358872,-5.315172,1.2075,0.148498
stress13,L2,suffix,550_680,-1.647379,-3.137423,-2.450509,-1.155903,-1.993562,-2.840086,0.840043,0.839853,-8.962311,-2.461137,-2.622297,2.222425,-2.329192,-2.20309,-3.53805,-1.78589,-1.311165,-2.773583,-1.140009,0.852354,-3.221231,-4.24432,2.390136,-0.532002,-2.549388,-1.542146,2.54704,1.216308,-3.324502,-1.28633,-1.441685,0.65334,2.746787,10.186955,-5.327598,2.731224,-1.373149,2.688437,0.762423,1.565268,-3.055452,0.228017,1.181813,1.772564,-2.762565,0.601997,0.099768,0.189866,-0.920079,2.235878,1.111204,2.168234,2.303834,5.838125,0.496172,1.184845,2.12184,4.344445,-0.57861,3.585865,0.723786,1.782368,-2.597944,2.628789,1.346989,2.221598,-2.336607,3.87548,-1.758024,-0.387334,-2.184056,0.022406,0.749213,3.718416,-1.438677,1.937041,1.671542,8.559417,-0.459124,1.733817,-1.366928,-2.638204,-1.427093,2.044906,-3.213775,0.07737,0.179599,1.086285,-4.449996,-2.526329,2.264653,-0.309068,-3.619225,-2.429996,-0.595198,-0.881227,-0.800055,-2.874893,-1.411722,-0.492017,-0.504983,0.143019,0.833043,-2.456323,-2.080202,-3.8246000000000002,0.877861,-1.668544,-3.804441,-5.83978,4.380493,0.622318,1.529946,-1.426147,0.50784,-2.49838,0.440782,-3.2293790000000002,6.085175,-3.802892,-0.994633,-3.969486,-0.621227,-1.370855,-235.736847,-446.687805,1059.699097,1162.333984,-1.472777,-6.24879,1.928907,-1.488347
stress14,L2,suffix,550_680,-3.377351,1.110258,-0.561462,2.551864,-5.85271,1.601111,-0.999616,3.71549,-11.170144,-4.735705,-1.870318,10.832171,-8.119357,-6.7084530000000004,-0.567044,8.929829,-6.942974,-2.319088,-2.320913,4.582057,-2.041312,4.612146,1.115928,0.732213,-1.794696,-0.391734,0.173984,3.079811,-5.881941,-4.188826,-0.603093,3.696968,-1.893902,-7.493477,2.655349,4.706732,-0.67401,-2.818093,-0.718102,2.193267,1.456991,0.598314,0.898885,1.16813,2.308491,0.998733,2.881941,0.883594,2.079673,-0.805811,2.228098,2.271851,0.025186,-2.523462,-0.190517,1.16457,1.146127,-2.335896,1.640893,2.067007,0.344698,-1.489981,0.810026,1.629205,1.152293,-2.057733,-2.513777,2.26838,0.879587,0.840366,0.369553,0.054412,1.211931,-1.798535,0.107178,-0.861732,4.146701,-7.332087,0.562762,-0.873699,2.290558,0.86485,-1.787408,-1.785359,0.834198,1.236727,1.041968,0.81241,0.985024,2.124219,2.054733,1.019453,0.837432,3.834818,3.118638,-1.113276,1.545681,-1.251338,-0.162393,-1.609376,2.758929,0.37488,3.047841,-1.742832,1.362115,3.82106,2.820179,-2.813433,-0.379669,4.406116,0.987444,-0.856128,-0.139356,4.817379,2.580822,-2.99421,5.14126,5.537124,3.519847,-4.029374,2.374237,4.911992,1.000389,-1.817528,-482.503662,-561.303589,785.836121,1232.537598,-0.750931,4.941855,-1.072704,-1.277677
stress15,L2,suffix,550_680,-8.942142,-0.777475,-8.757962,1.437701,-2.993416,1.142445,-3.87876,6.916014,-1.130615,4.79971,-2.906818,20.690956,2.32782,4.039586,1.863525,15.555236,-0.106539,1.937129,-3.793997,11.307325,-4.080706,2.345372,-5.809386,3.486424,-1.965712,2.691815,-6.347298,8.377319,0.631683,2.786598,-1.644425,8.066875,5.925063,-0.055715,5.134016,2.781775,0.808587,1.642834,-3.539088,5.454915,-1.173694,0.915925,-8.576704,5.6072939999999996,-0.599233,0.365578,-7.972847,3.6553,1.394269,1.635988,-5.73356,3.516036,1.790117,0.949614,-1.934721,3.017385,3.125253,2.461028,-1.355775,2.248525,3.123436,1.530349,-1.089811,2.677512,2.82474,0.401794,-1.678221,0.492925,0.334557,-0.270071,-4.288305,1.001013,1.350495,-0.732707,-1.149161,-1.884329,6.884645,-2.089915,12.300015,-5.194802,-0.642485,-1.01686,-2.857536,-3.853967,-1.584694,2.004577,-9.790792,1.817745,-3.726322,0.62452,-7.963873,2.765356,-2.679761,0.547941,-3.615715,-2.44646,0.156777,-1.851345,-1.034508,-8.668354,2.609884,-0.964752,1.852304,-11.874203,-0.808418,-0.076088,-2.346703,-8.909329,-3.734706,0.607831,-3.890812,0.043816,-3.357048,-0.719448,-2.619128,-4.213958,2.679645,0.60582,-0.755549,-14.949761,-7.941142,-4.544277,-10.107746,-3.963353,-313.657104,-559.945801,688.365112,994.497925,-4.269902,0.715211,-5.811343,0.804342
stress16,L2,suffix,550_680,-24.119438,-8.656573,-4.0143,26.590544,-9.489923,0.557117,-5.429623,5.58636,-6.976866,-0.209061,-3.807931,6.226653,-1.539184,0.716537,0.789058,1.30487,-2.475046,-0.408518,-2.661563,2.863408,-0.240205,-0.241715,-3.969849,0.97091,2.200447,0.728861,-3.593148,1.77225,2.08072,-1.856082,1.826316,1.977513,9.91837,3.148269,8.465485,-1.567322,4.442209,2.234823,-0.996651,2.40678,2.39637,2.529019,0.290511,0.63265,3.824655,3.798423,1.809128,3.69541,5.212137,3.48075,0.818288,2.463619,5.633195,2.973277,1.958707,0.496305,6.936237,5.685592,4.918497,1.425106,6.350211,5.646503,5.214467,1.83582,3.138757,5.211761,2.249208,0.271127,3.241527,0.983984,1.653643,1.801812,1.775495,1.562174,1.157174,-0.094823,8.4883,1.675949,6.846236,-0.682438,1.14461,-0.802504,0.695034,1.587634,1.273844,0.215628,-1.048677,2.246643,1.458146,0.150786,-0.92311,-0.424627,1.175059,-1.040358,-0.670719,0.957803,1.293611,-0.591379,0.837698,1.075287,-0.274467,1.606892,-0.148091,-0.460608,-1.595942,-1.757475,-2.042039,0.617116,-2.30238,-0.890746,-3.623324,-1.95726,-6.912077,-2.401853,-3.578015,1.637665,-5.218003,-0.179046,-2.004689,1.959247,-16.909395,-4.904395,-4.672063,20.101543,-116.274239,-383.988586,842.746887,1083.696045,-6.135562,-1.608074,-5.103909,0.74992
stress17,L2,suffix,550_680,1.141346,-1.667172,3.030807,0.77788,0.106906,-1.803202,-1.218925,2.838809,0.797325,0.555038,0.667993,0.686845,1.540309,1.08011,2.081405,1.390797,-0.231304,0.038893,-0.765831,1.880859,-1.604906,-3.878303,-1.76421,0.87158,0.182777,-3.33027,0.139721,3.074845,-0.233447,1.540938,0.883545,0.42994,0.691557,7.126413,0.204619,-2.046748,0.537097,1.296226,0.558412,1.731937,1.296336,-4.108691,-0.570647,-0.098338,-0.134028,-2.981871,1.297993,0.58236,1.670339,-2.839525,3.261911,1.813786,0.192223,2.547413,2.118666,1.477478,1.430151,-0.131113,3.277207,1.459074,1.400295,-0.106623,3.324877,1.464241,1.356193,0.464305,1.462245,0.746604,1.916068,-7.930026,2.148949,4.590253,0.599321,1.39222,0.844181,-0.508769,-0.464334,5.248475,0.543831,-4.539154,0.424748,-0.67287,1.486564,1.659168,-0.61749,-4.101547,0.39989,-0.102703,-1.379844,-6.35592,-1.119187,0.187745,-0.553235,-3.098489,-0.867204,1.979686,-0.574535,0.393182,0.120191,0.312538,-0.353565,-0.05421,0.121183,0.362296,-1.117914,-2.408924,-0.113047,1.514363,-1.158211,-5.900597,0.749906,2.509839,-1.068244,-3.471262,-0.435733,2.600905,-0.529122,-1.750562,-0.305637,1.706821,2.983606,-1.500952,3.016398,1.233886,-190.110687,-449.160492,639.862427,979.413818,-0.075741,-4.124963,-0.249484,2.195301
stress18,L2,suffix,550_680,2.161631,0.663162,0.531897,-0.675352,2.505938,0.132948,-0.931301,-1.409575,2.363278,0.251759,-0.113233,1.637271,1.637763,-1.220376,1.724057,2.213181,2.228657,1.114719,0.845824,1.186935,2.15505,2.138044,0.458289,-1.341242,1.405904,2.407611,3.023253,0.105398,1.919185,0.615919,3.227883,3.549603,2.590295,1.495317,7.490281,6.725418,2.246864,2.554018,4.715407,3.024305,0.459454,2.920071,4.74058,1.160468,1.54379,3.305213,5.945697,2.568315,2.524449,3.463949,5.502492,3.848683,4.107694,4.965822,8.101783,7.758355,4.561584,5.754204,6.97759,6.409705,3.114108,4.230631,4.745562,4.274296,1.954353,2.034033,3.041885,3.333122,4.160702,3.388416,1.843706,-1.03691,-2.208264,-0.904821,1.204775,0.729262,-3.230156,-4.526001,1.356516,2.478598,0.377259,0.272843,0.325212,-0.718677,0.757064,2.023292,1.628314,-0.469647,0.557803,2.027123,3.282917,0.200947,0.618509,1.957476,1.153497,-1.115784,-0.121448,-1.868092,-2.020395,-4.549144,-2.977559,2.318845,-0.223278,-0.617034,-0.886048,0.797746,0.53793,-1.488562,0.050516,4.686378,0.963366,-1.541401,1.545588,1.646817,-0.376548,-0.787924,-2.324951,1.843425,-1.303317,1.440974,0.455306,0.396423,-1.646941,-1.696482,-72.867706,-295.620026,712.29834,1314.603638,0.213287,1.010229,-2.948934,-3.068006
stress19,L2,suffix,550_680,0.250882,1.410089,0.277857,-1.16837,-0.875868,1.034746,-0.347567,0.574363,-0.425001,2.753449,0.520563,-1.588278,-0.109534,0.261092,1.738753,-2.035808,-0.791119,0.704756,1.775177,0.75566,-1.400951,-0.039007,1.087822,2.275835,-0.471243,1.494321,2.666631,3.74824,0.930416,0.605837,3.041433,1.769001,0.524371,2.672929,2.491071,0.991777,-0.229508,2.977831,3.914679,7.51662,-1.52555,0.861452,2.905209,5.938036,-1.266689,0.818104,0.942775,7.077386,-0.347113,3.054432,4.546784,8.533937,0.489476,2.76997,3.391321,7.904371,0.580977,1.842282,3.186301,6.372634,-0.390644,2.020292,2.838135,4.359888,0.393281,1.643925,3.059417,4.740908,-1.848305,0.907508,2.305023,5.256642,0.619448,0.119604,2.486671,3.178651,3.239894,0.053515,1.583354,-2.100717,-1.910292,-0.871823,1.143768,2.147769,-2.212867,-0.241346,2.081196,4.419403,-1.573069,-0.812303,1.513802,3.830491,-1.276542,-1.489124,0.625268,2.290512,-0.425583,-2.548923,0.589138,-2.367038,0.27932,-1.762429,-0.585575,-6.806209,-0.512125,-2.049548,0.74032,-1.027267,-0.926299,-1.298657,0.832332,1.429352,0.144579,-1.645809,1.742105,0.038759,0.847748,-1.396131,2.09468,-2.832078,4.024956,0.804681,0.193804,-3.835181,-1443.894165,-1037.441528,99.83329,893.436523,-1.254752,-0.908814,-1.358141,0.369647
stress2,L1,suffix,550_680,3.69957,0.0104,0.551676,-1.063083,-1.849837,-0.03087,-0.539493,-2.950846,-1.08372,0.730497,0.210167,-0.452398,0.316496,-1.396359,1.212788,0.151351,-2.175762,-1.575245,-0.570976,-2.352405,-2.632917,-0.07185,-0.846356,-2.391918,-1.803741,-1.30668,-2.589614,-2.212618,-0.748246,-2.933858,-0.420487,-1.412886,4.871025,-1.653032,1.330126,6.581888,-0.492838,-2.271917,-1.335811,-0.165729,4.242365,-6.088614,-4.489305,-4.983241,3.296803,-0.968839,-0.84306,2.850201,1.830348,-1.420975,-0.981539,1.488701,1.912549,-0.554252,-0.91432,0.050942,0.813445,0.45162,1.102263,2.091538,0.374735,-0.115592,-0.056791,0.593692,0.141144,-1.432345,-1.31803,0.195852,2.131936,0.823596,-0.862414,1.816399,1.204739,-0.223658,0.431135,0.606328,1.347188,2.225628,0.279173,-0.267981,1.969326,-0.084105,-0.786735,0.943821,2.266743,1.308214,-0.484362,2.666695,0.087115,0.897968,-1.095583,1.333853,1.549701,0.946122,-1.016204,0.236373,1.581885,-0.773406,-0.092043,-1.524889,2.705669,0.661754,0.129048,0.135645,0.821475,0.159032,-1.067704,-0.778137,-0.923835,1.237428,-0.783312,-0.656069,0.104577,0.44031,0.010476,-1.71656,3.600457,-0.117616,0.9618,-0.104417,6.274142,3.100065,-0.564822,1.147187,1746.099243,51.155331,876.305054,1428.648315,-2.072738,-0.190864,-0.536433,-2.104637
stress2,L2,suffix,550_680,-0.894973,-0.066207,0.11724,-0.403614,0.151337,-4.046247,-4.085385,-3.737631,-0.201919,2.475759,1.613343,0.193252,0.866974,6.398793,4.70336,2.779554,-2.324376,-1.617908,-0.878035,-1.410176,1.369316,-7.094373,-4.207653,-2.151438,2.972866,-5.53301,-1.871369,0.539601,0.017293,2.53358,3.08161,1.469762,4.506605,8.50931,7.755102,5.559913,3.543568,1.375106,1.760448,2.27581,5.592073,-6.672195,-1.592966,0.375022,4.252901,-3.769392,1.542259,2.736867,5.556464,-2.327476,3.59671,4.413945,3.637342,2.178956,5.212809,3.708974,6.051062,0.230385,6.369503,3.439025,5.950207,0.503364,6.408474,3.381625,7.130045,1.449936,5.110764,4.109489,2.957757,-2.193492,0.57584900000000006,3.119715,1.387791,2.46377,3.515889,2.883638,1.248064,5.919244,7.318945,4.696853,-2.030638,-2.579187,-0.085309,1.832006,0.202998,-5.321665,-1.861616,-0.066458,2.103935,-7.49383,-2.68085,-3.372949,-5.907307,-8.73941,-1.597754,-0.750527,-6.743073,-5.875721,1.778564,0.124863,-6.545776,1.573535,2.899396,-1.747781,-8.82989,-11.426193,-0.667775,-3.199926,-3.45584,-7.481557,-4.005817,-3.515865,-5.149755,-6.682371,-4.285723,-7.220833,-9.466218,-8.272016,0.467887,-6.07049,-1.812317,0.130724,0.790914,-3.826664,1870.273193,627.861511,977.056335,1430.680664,-1.918223,-4.809518,-5.024682,-3.418922
stress20,L2,suffix,550_680,-15.774114,-12.183732,-12.772659,2.397243,-8.018615,-5.005705,-7.598394,-0.366095,-6.726771,-0.885453,-7.175611,-7.844715,-0.743577,2.24137,-1.948574,-7.473411,-7.054932,-1.536463,-4.576187,-3.239111,-4.121592,-4.043314,-5.446376,0.668136,-2.327693,-0.856855,-2.128956,2.70436,-2.765421,2.028841,-1.4511,-3.852025,9.344584,7.26378,10.166053,-0.84771,0.506892,1.052409,1.321848,1.447638,-1.033463,-0.885648,-1.549917,5.251974,-0.563512,-0.649282,0.778768,7.008851,1.688526,0.752208,2.894829,4.994763,2.896014,2.161333,5.308895,2.809557,1.981566,-1.213836,5.055547,3.762199,1.885879,-1.129681,3.951993,4.78996,0.788554,-1.256707,4.175496,5.146484,0.358447,-1.012272,1.304936,4.806971,0.362966,-0.799796,4.854502,3.106925,10.117021,5.660637,11.411882,-0.263548,0.924523,-0.825591,0.193219,1.652043,-1.311741,-1.101498,-1.550333,4.728312,-2.920133,-2.679731,-4.257231,4.40722,-0.193084,-1.786905,-2.650434,2.589469,2.622081,0.592745,0.481588,0.413012,5.057376,2.477935,1.799746,-0.630025,-0.279662,-2.759497,-3.498579,0.521,-5.663167,-3.958675,-5.924353,0.854202,-4.547933,-3.706138,-5.796232,2.137871,1.053302,-0.924941,-2.816932,3.896254,-11.345002,-9.017233,-10.110762,6.56181,252.485336,-799.413635,393.620819,1116.361938,-6.487203,-4.308139,-7.192643,0.370419
stress21,L2,suffix,550_680,-0.462358,2.924558,-1.566309,-0.855567,-2.573047,1.863881,-0.412268,-1.025082,2.180269,1.671032,1.717224,-0.221125,2.568505,1.368769,1.150098,-1.298147,-4.757778,0.914918,2.152184,-1.965887,-3.08202,1.895075,-1.562968,-0.304848,-1.155083,0.974901,0.41224,-0.84132,0.210513,0.54179,1.639411,-2.253705,6.14869,1.248606,2.959998,-0.514297,1.642155,1.980864,0.358112,-1.905581,-0.175694,0.300557,-1.329267,0.805097,-0.278762,0.195826,-0.879802,1.29746,2.587636,2.745286,0.121009,0.824537,3.859232,3.282433,1.056881,0.68507,5.906837,4.183532,0.640435,2.9986,4.250898,1.81577,0.392389,3.015802,3.40842,0.36221,-0.184633,2.90829,0.672585,-0.47695,-1.160798,2.190914,2.100807,-0.015033,-1.007624,2.599295,5.912522,-2.449519,1.270051,2.917147,0.092142,-1.893825,-1.69095,1.589904,-1.101294,-0.150015,-1.848744,1.887033,-4.91763,0.489253,-1.177352,0.003888,-2.893365,-1.823798,-1.583101,0.946154,-1.091538,-4.138696,-0.721875,0.076536,-0.641906,-3.420914,1.166471,1.300175,-6.579539,-4.589669,-0.763443,0.265253,-5.313363,-0.871313,-1.626913,-0.02266,-6.200711,-1.745723,-0.907755,-0.97917,-0.12047,-4.565215,2.456551,0.791,-1.935366,-1.337963,0.539064,-3.736967,-64.509094,-181.019562,702.980957,1211.122437,-4.020404,0.400305,-1.410016,-0.80095
stress22,L2,suffix,550_680,3.416975,-4.850643,-2.487629,1.670891,0.415787,-2.107951,-5.582142,0.214415,1.122512,-3.339824,-0.504137,0.356473,0.508656,-2.808311,4.139967,0.608501,0.652261,-1.045988,-1.515251,0.709969,0.444902,1.406394,-7.739918,-0.570907,0.672348,3.001305,-2.443074,-0.441637,0.904323,-2.103484,1.047463,0.21396,-1.3899,-1.409296,10.103539,2.33113,-0.222614,0.475052,-0.605822,0.865607,0.599994,4.910038,-2.570665,1.20732,0.965588,5.84823,-1.023634,2.880532,0.456967,4.27908,-1.143627,2.885275,-0.037406,0.191403,-1.007347,1.324335,0.969941,3.984089,-0.34876,4.90135,1.522657,3.776025,-0.182598,4.495306,2.338681,3.144792,0.878382,4.997801,0.417997,3.628673,-0.891241,2.660608,1.836401,1.378021,3.327136,3.940694,0.437443,-0.173867,14.00564,2.870576,-0.266609,1.323061,-0.088505,1.609566,0.202054,4.907934,-3.208491,1.476634,-0.807164,3.828857,-5.385004,0.037035,-0.612997,2.782218,-4.666354,0.758242,-0.639671,-0.964635,2.840944,1.194897,-1.481697,-2.085336,5.485763,-0.332479,-3.190386,0.13232,-1.39645,1.099908,-0.7929,1.006558,-8.692109,0.087709,-1.496989,-0.358506,-6.058527,0.726753,-3.1288,-1.116072,1.79638,1.398876,-1.031425,-2.946688,-4.106665,0.891253,56.051128,-553.113159,778.077637,1051.837036,0.317486,0.527721,-8.036394,-1.733904
stress23,L2,suffix,550_680,3.997869,7.357605,-4.805573,1.214051,3.454625,2.493829,-6.666489,-2.028944,6.29215,13.011878,-6.338132,0.167894,5.012276,11.273372,-4.727995,0.507962,4.810604,4.767916,-7.264008,-2.174441,2.516002,-0.31668,-5.142195,-1.61702,3.334653,1.648562,-3.614995,-1.14281,5.19297,6.587039,-3.886068,-3.362379,-5.933711,5.475232,11.72808,0.17687,8.851742,4.961228,-3.895112,0.402431,0.926075,0.446741,-2.705476,-0.126968,2.645447,-1.889513,-1.336888,3.143092,3.986993,-0.864931,-0.271958,1.608012,10.329997,2.078797,1.081465,3.711123,5.324882,-3.170428,3.987496,3.538359,5.314095,-3.535633,1.929534,3.460837,5.806675,-3.907619,2.614973,2.854752,3.441662,-5.125584,0.192874,2.947782,5.387279,-3.004301,15.942652,5.363606,2.742249,-2.973781,7.381639,2.288043,6.919608,-5.326516,-1.042562,1.407137,1.717023,-4.084139,-3.24652,1.302793,-0.686522,-3.856485,-5.0593,-0.342674,3.343157,-5.057667,-2.352109,0.733316,-5.90801,0.127638,-1.619354,-3.361471,0.33136,-5.428702,-7.53823,1.715551,3.462189,-6.648345,1.383865,0.199285,3.048766,-3.657412,-4.594397,-0.184148,0.616324,-0.678346,-5.066691,-0.003342,-1.505337,-10.653193,-3.490394,-1.26912,5.554439,-1.389337,0.533192,0.168176,296.996277,-685.955872,915.556213,811.70282,1.063824,-0.833822,-6.369906,-0.82164
stress24,L2,suffix,550_680,-2.768253,7.618361,-2.55298,3.824261,-2.045687,2.998093,0.064873,-3.762703,-2.343944,4.985954,-0.369482,-0.633725,-1.517277,0.347593,4.156301,-0.521093,-1.153484,3.03927,0.868552,-4.316766,-2.064682,2.000426,-0.864853,-4.026126,-0.483865,0.790878,-1.379486,-5.23068,-0.951407,0.789094,1.785544,-0.316707,5.597855,-0.232947,4.617959,7.038472,2.897625,0.95040500000000006,-0.129729,0.780196,0.965545,-0.219696,-3.316575,-3.417646,0.434192,-0.366809,-4.308084,-3.97674,3.391494,1.502784,-0.715922,0.522171,6.196995,2.40374,3.138595,5.304074,3.023235,-0.12771,-0.644384,3.189556,2.895195,-0.903364,-2.240527,0.553455,3.104948,-0.429593,-3.311268,-0.466707,0.382782,-1.2096,-3.552825,-3.102247,1.828437,-1.604025,-2.907613,-1.50414,4.27924,-2.810823,-1.433658,0.765093,-1.479177,-2.662514,-3.797322,-4.792394,-1.90068,-0.696465,-5.43111,-6.774725,-2.845196,1.223171,-3.80519,-5.951641,-2.507699,-1.161451,-3.489485,-5.632076,-6.02083,-4.933949,-4.022964,-5.259474,-4.864581,-4.136961,-0.767775,-4.800413,-4.156061,-2.568788,-2.768068,-4.434115,-2.929839,-0.167095,-2.515592,-4.534764,-4.654232,-2.00495,-5.460998,-0.343843,-3.942835,-3.875163,-0.478964,-5.326957,-5.141439,2.199375,-9.025919,0.929876,201.286652,-268.842804,524.729309,1346.785645,-3.292364,1.014589,-1.061434,-2.601189
stress25,L2,suffix,550_680,-5.840434,-5.329973,-1.12646,-5.111164,-2.150579,-2.705025,0.95899,-1.430148,-1.114079,-0.374573,1.944709,2.000758,1.649226,1.204968,0.833123,2.552681,-1.721022,-0.999431,0.423452,-0.618771,-2.3935,-1.613527,0.512357,-2.418918,-1.05691,-0.281261,0.505815,-0.701379,-0.410334,0.809322,0.315329,1.606896,7.643656,6.671664,0.363508,6.400407,1.42368,1.201534,0.206107,1.809469,-0.803386,-1.087483,0.546503,1.503913,-0.814788,-1.471761,-0.24621,3.048449,1.518224,0.160397,1.277032,3.95944,4.650534,2.76438,0.275278,4.525788,2.529411,0.094305,1.323065,4.877491,1.327116,-1.189448,0.060924,4.484172,0.813466,0.497972,-1.298988,4.348353,-1.826918,-1.876,-0.949312,2.158073,-1.033059,1.253542,-1.867258,3.584099,4.401928,5.348554,-0.047374,5.280043,-2.818849,-0.961274,-1.297886,-0.007867,-2.052081,-2.340444,-1.893684,-0.792742,-2.782055,-0.97602,-1.407918,-0.516498,-3.18377,-0.866017,-1.587097,-1.34352,-2.690392,-0.651457,-1.780147,-2.057589,-2.772053,-0.413712,-2.412297,-1.316291,-4.375442,-1.436805,-1.781592,-2.234419,-4.268312,-3.068248,0.189666,-3.64036,-5.737797,-3.346289,-1.294516,-4.50712,-3.657642,-2.040306,-2.195661,-2.581393,-5.893808,-7.092921,-3.402013,-8.292611,226.817337,-399.151733,883.576782,1199.227905,-4.015193,-4.006739,-0.105378,-3.893482
stress26,L2,suffix,550_680,15.837902,-14.221197,17.27552,-16.560757,0.957285,-3.758829,1.770278,-1.232886,-4.136526,-7.49402,-0.375713,1.306239,-6.350821,-4.582661,-1.71013,4.218009,-2.723713,-2.733973,-1.184076,2.859497,2.242932,0.628561,2.557912,0.35861,0.620327,3.321297,3.930815,0.038878,-4.763488,-0.420853,-2.173312,4.167414,-6.692002,1.516104,-2.569148,5.123533,-1.613845,2.5586700000000002,0.041925,1.482007,1.61728,4.722043,3.466736,1.81017,2.042735,5.730916,5.028142,0.613607,1.506424,4.072286,1.513992,0.557061,-1.859437,1.758281,-0.096139,1.842232,-0.860173,2.921577,-0.351232,0.864902,-3.269287,2.083173,4.278807,0.073675,0.467274,3.362505,0.177131,-1.823829,1.27568,4.426562,2.579364,-0.490063,0.259682,2.848903,0.910332,-1.313291,-2.94956,4.796749,-2.164431,1.855501,1.489731,3.223505,1.49892,-3.386097,5.266058,2.588006,3.569815,-1.516184,2.099971,3.308112,4.164835,-0.177391,1.48301,1.992901,3.969896,-2.266539,0.227023,3.767664,1.955211,-1.607479,1.26965,1.475369,1.15468,-6.129378,3.260247,-0.803602,3.262412,-5.840065,2.602915,0.931752,2.606344,-1.283409,4.687074,-1.320857,2.7713,-5.606981,6.037932,1.501243,3.501858,-11.602324,20.028334,-16.778154,9.16206,-13.763761,260.79425,-432.427429,622.374329,1175.957153,3.213854,-2.104284,1.57786,-2.326344
stress27,L2,suffix,550_680,34.426281,16.52108,-48.5322,9.726317,45.091801,-6.594892,0.505921,13.73976,109.923592,-23.555197,24.776072,26.281372,57.033852,-18.794102,25.994455,10.572297,63.517975,-9.534309,13.159458,10.238687,13.670424,-6.053464,-1.406136,7.763119,20.117952,-10.639896,6.850688,7.906707,38.143204,-9.025945,13.63879,1.894585,8.419311,-6.468098,21.944281,-7.006979,18.677155,-7.434416,8.567353,3.313369,8.58508,-5.829778,4.400774,5.760681,2.528911,-4.280475,3.413262,4.724533,9.043296,-5.814317,6.51458,5.055438,10.496085,-5.079839,8.28714,0.238431,2.363127,-3.668369,6.967898,2.758248,-0.879422,-3.306849,6.510075,3.812581,-4.519164,-2.364784,5.11402,2.766881,-6.655551,-1.335934,2.092489,2.935315,-11.961916,0.861003,2.157741,-0.414689,-21.152016,3.802483,12.880529,-11.471038,-16.293661,2.82269,-1.489208,0.440981,-4.512587,-2.354155,-0.492529,2.011599,1.583193,-4.949398,-2.549203,4.802806,-16.65258,3.205747,-5.901679,1.087054,-31.327536,10.732134,-5.522419,-6.261395,-54.508942,18.859348,-10.773009,-16.510466,-42.307163,16.47872,-11.128744,-9.158164,-8.374562,0.238607,-7.692134,3.334006,-20.288389,10.795077,-18.907528,-0.395458,-76.458374,33.970203,-27.917393,-18.623795,16.343237,13.397332,-43.297199,10.494487,-738.655884,-964.514587,783.552002,1314.250488,4.244235,0.888538,-11.608273,6.15934
stress3,L1,suffix,550_680,-8.201543,12.702012,17.759138,-12.390412,-4.759519,4.769014,8.624921,-4.682954,-14.225958,7.814625,7.767147,-8.860525,-7.309718,-3.061428,-1.69829,-5.345201,-7.246861,0.497554,5.771436,-5.205295,-3.127284,0.276406,7.160275,-2.048888,-4.086842,-2.65072,4.672506,-2.251995,-5.6241,-3.185641,0.459576,-3.995884,2.617264,-4.778785,-13.719361,4.466235,-2.212292,-4.202139,3.315959,-0.999118,-2.150453,-2.911068,4.242193,-1.246097,-0.582262,-1.603541,3.837662,-0.154729,-0.828595,-4.181927,5.094359,-0.618578,0.769998,-3.030228,3.390223,0.291933,3.010962,-3.235144,1.373718,-0.314445,2.300701,-3.881677,-1.133427,-1.791878,2.428085,-0.927798,-1.34095,-1.512469,0.089046,-0.141619,3.473872,0.584566,-1.501761,-0.937371,0.046528,1.5622,1.870041,-2.942308,-12.47964,0.847224,-0.610985,-0.024814,1.308824,0.867135,-0.367839,-0.52627,4.38881,1.014895,-2.23559,-2.967574,4.661741,-1.18388,0.850093,-0.147799,4.318052,0.25549,-1.855301,-0.46081,-4.59235,-0.188476,0.289883,-2.018643,-7.349444,-5.063907,1.071145,0.05944,1.98526,-0.344379,0.077152,-0.10496,7.280128,-1.010639,-1.240513,2.015961,6.52593,-0.264137,5.18518,-1.022102,-0.245193,0.534015,-5.463234,11.117943,15.149866,-7.391617,2077.121338,1620.530518,1413.202026,899.101685,-1.495768,2.573698,8.732999,-1.771154
stress3,L2,suffix,550_680,-3.507691,-0.580116,-1.492494,-4.365497,-1.274278,-4.484187,-3.36528,-1.575228,1.229058,-2.476929,0.030201,-5.45211,2.564967,-0.474143,0.090208,-2.124595,-0.389085,-4.087528,-2.43607,-2.762434,-2.516779,-4.649311,-2.308369,0.684993,-0.165004,-3.421092,0.146106,0.008442,2.793544,-2.759253,-1.010186,-1.69477,8.473121,5.535069,4.073936,1.369986,1.969296,-2.290254,0.57544,-0.158653,0.561861,-1.338798,2.504606,4.198346,0.463008,-0.815686,4.274829,6.979092,2.833036,-1.316655,2.604725,4.01193,4.049622,0.067629,1.769083,2.943916,3.752972,1.301957,3.771951,6.661265,2.710475,1.191935,3.619429,6.683435,1.012593,1.854815,4.406379,6.001726,-1.479276,1.030751,2.39305,4.32732,5.442602,0.96642,2.329222,5.092775,4.839042,6.640842,5.344465,3.145032,-2.196241,0.220122,0.794225,1.971825,-2.056004,0.337706,1.869745,3.979603,-1.64071,-1.631052,0.485039,3.518746,-3.574964,-0.060416,-0.329442,1.639634,-2.338591,1.005895,-1.062304,0.543696,-1.301064,2.035789,1.557946,1.02836,-3.53442,0.081572,-0.557261,0.292445,-4.18885,-2.819834,-3.495182,3.104696,-6.457537,-2.860172,-2.973561,0.248539,-4.651327,0.116311,-0.380142,-0.315038,-6.583498,-0.293325,-1.874384,-0.675552,1822.549316,520.859985,1036.516235,1416.832886,-4.437388,-4.058637,-3.139467,-1.505007
stress4,L1,suffix,550_680,-1.617401,5.801385,6.080614,2.668042,-0.749201,4.544561,4.352344,1.147045,3.067701,3.749955,6.725916,-2.250383,7.847719,2.826091,3.323035,-1.239344,-1.022769,7.3606,2.54642,1.60978,-1.484396,2.48842,-0.204946,0.382501,-3.586594,4.130295,-1.029202,-0.368885,3.719474,0.873964,2.299832,-0.43978,1.077006,-2.898507,2.843999,-3.472901,-3.026935,3.374599,1.224023,0.703009,-3.857022,1.276025,-1.593372,0.316012,-3.424526,0.176958,-2.219982,0.049175,-2.976472,1.693115,-0.724427,0.441205,-5.102566,3.33847,2.009794,-1.281099,-2.845218,-1.155401,5.013022,-3.222229,-2.805797,-1.186745,5.089852,-3.21661,-2.002518,-3.831835,1.395262,-7.442674,-4.795596,0.672629,-2.936732,0.403944,-6.611995,0.127781,0.152541,-1.614105,5.950197,-5.08587,-0.403715,-3.315437,-8.259513,1.785738,0.397463,-2.989734,-2.863183,0.894222,-2.757684,1.276672,-2.180925,-0.050999,-1.521053,0.445623,-4.579935,3.269587,-2.244051,1.336086,7.462796,0.779867,-2.094106,-1.557763,7.614875,-3.29294,2.920408,-0.961807,-0.892277,0.427645,2.645904,-0.785686,-0.867266,3.78254,-0.555288,1.360985,-6.324821,-0.395634,6.3673,5.418339,-5.848492,7.06035,5.966892,3.874959,-2.159545,5.794055,6.232772,0.324729,1752.047852,1759.59729,1752.716797,1380.559692,-2.342401,2.661461,-0.81343,2.262778
stress4,L2,suffix,550_680,-1.369377,-2.103881,-2.285424,-1.14244,-0.274892,-2.540685,-3.776734,-5.315944,0.204163,-1.508158,-1.862749,-0.045264,1.921791,-0.428713,-1.327169,1.464975,-1.727426,-3.229303,-3.12212,-3.207097,-0.628809,0.4493,-4.412924,-5.887342,-2.331609,0.727924,-3.900439,-1.718728,0.858104,-1.955429,-3.25255,-1.197108,5.025836,1.821225,5.402661,6.972179,-0.871891,0.282842,-2.896675,-1.015131,-2.852427,0.012627,-1.988699,-1.11035,-2.089394,0.251168,-1.307103,0.047396,-0.910702,2.228403,-1.622853,0.83869,0.09663,1.028764,-1.702389,1.33137,-0.391553,3.781308,-1.694175,2.806613,-1.098746,2.52934,-0.577706,2.34923,-1.520747,2.37895,-0.698865,2.793964,-2.972731,-0.514087,-12.490092,2.253266,-0.123534,2.230721,-1.397642,2.823502,6.74914,4.065874,2.193619,6.787131,-1.180019,0.701897,-1.960309,0.443671,-4.803971,-0.046438,-1.0658,-1.606115,-5.279238,-0.879446,-1.00238,-3.03393,-3.586339,0.34254,-2.272004,-2.887139,4.899037,1.345573,-0.628194,-1.39639,1.078706,1.372742,3.48957,1.334087,-2.296165,0.432353,-2.402651,-2.797982,-5.599683,0.848779,-0.867694,-3.668878,-6.547765,0.730085,-4.423472,-2.580987,0.156139,1.192514,-2.850206,-3.114796,1.043361,-2.433714,-5.237999,-0.572975,1709.855469,517.568787,812.118591,1421.559326,-3.92499,-1.962367,-2.532094,-4.586435
stress5,L2,suffix,550_680,2.84715,-27.860876,-34.243526,4.306985,-1.048551,2.206037,2.200361,0.426513,1.947884,4.753089,6.103909,3.169771,1.574583,4.541192,5.495839,2.559309,0.913034,2.827399,3.415871,0.013933,-0.401204,0.269596,-0.33588,-0.885492,0.572421,0.725711,0.84884,-2.1876,2.856262,3.43629,4.922708,0.817064,4.718958,0.533426,2.729106,1.41714,1.321926,-0.456957,0.62842,-2.994673,0.059907,-2.567748,-2.872458,-3.101997,-2.548195,-3.141964,-5.67846,-5.741302,-0.863348,-2.531273,-2.786802,-4.83341,0.760787,0.195935,-1.471672,-4.882763,-2.18657,-2.984596,-3.508777,-4.791718,-4.744832,-4.235642,-3.006148,-5.947609,-2.104217,-3.787158,-3.088513,-4.811656,-2.503635,-3.208135,-5.397375,-4.105642,-3.403894,-2.118002,-2.916733,-1.77753,0.005469,-1.245564,2.050205,-0.07248,-1.944093,-1.982401,-3.877068,-2.991943,-1.825514,-1.821302,-4.727063,-3.216034,-0.818803,-0.601191,-1.114992,-0.906607,-1.950221,-1.94932,-3.115087,-2.145921,-0.29713,0.135744,-1.469372,-0.43783,-0.835288,2.304515,0.464683,1.218574,-3.561429,0.003859,-5.209963,-2.411197,-0.858135,-0.56063,-2.988316,-0.512375,-2.047196,0.313389,-3.280576,-1.786968,-2.345744,0.897451,-3.625611,-0.541447,2.587275,-3.438561,-10.6485,1.370847,1819.477173,794.173401,1189.413452,1480.216309,-1.574809,0.237378,-1.593104,-0.44822
