Participant_ID,L1_L2,area,time_period,Fp1-Average_F0_stressed_mismatch,Fp1-Average_F0_stressed_match,Fp1-Average_F0_unstressed_mismatch,Fp1-Average_F0_unstressed_match,F3-Average_F0_stressed_mismatch,F3-Average_F0_stressed_match,F3-Average_F0_unstressed_mismatch,F3-Average_F0_unstressed_match,F7-Average_F0_stressed_mismatch,F7-Average_F0_stressed_match,F7-Average_F0_unstressed_mismatch,F7-Average_F0_unstressed_match,FT9-Average_F0_stressed_mismatch,FT9-Average_F0_stressed_match,FT9-Average_F0_unstressed_mismatch,FT9-Average_F0_unstressed_match,FC5-Average_F0_stressed_mismatch,FC5-Average_F0_stressed_match,FC5-Average_F0_unstressed_mismatch,FC5-Average_F0_unstressed_match,FC1-Average_F0_stressed_mismatch,FC1-Average_F0_stressed_match,FC1-Average_F0_unstressed_mismatch,FC1-Average_F0_unstressed_match,C3-Average_F0_stressed_mismatch,C3-Average_F0_stressed_match,C3-Average_F0_unstressed_mismatch,C3-Average_F0_unstressed_match,T7-Average_F0_stressed_mismatch,T7-Average_F0_stressed_match,T7-Average_F0_unstressed_mismatch,T7-Average_F0_unstressed_match,TP9-Average_F0_stressed_mismatch,TP9-Average_F0_stressed_match,TP9-Average_F0_unstressed_mismatch,TP9-Average_F0_unstressed_match,CP5-Average_F0_stressed_mismatch,CP5-Average_F0_stressed_match,CP5-Average_F0_unstressed_mismatch,CP5-Average_F0_unstressed_match,CP1-Average_F0_stressed_mismatch,CP1-Average_F0_stressed_match,CP1-Average_F0_unstressed_mismatch,CP1-Average_F0_unstressed_match,Pz-Average_F0_stressed_mismatch,Pz-Average_F0_stressed_match,Pz-Average_F0_unstressed_mismatch,Pz-Average_F0_unstressed_match,P3-Average_F0_stressed_mismatch,P3-Average_F0_stressed_match,P3-Average_F0_unstressed_mismatch,P3-Average_F0_unstressed_match,P7-Average_F0_stressed_mismatch,P7-Average_F0_stressed_match,P7-Average_F0_unstressed_mismatch,P7-Average_F0_unstressed_match,O1-Average_F0_stressed_mismatch,O1-Average_F0_stressed_match,O1-Average_F0_unstressed_mismatch,O1-Average_F0_unstressed_match,Oz-Average_F0_stressed_mismatch,Oz-Average_F0_stressed_match,Oz-Average_F0_unstressed_mismatch,Oz-Average_F0_unstressed_match,O2-Average_F0_stressed_mismatch,O2-Average_F0_stressed_match,O2-Average_F0_unstressed_mismatch,O2-Average_F0_unstressed_match,P4-Average_F0_stressed_mismatch,P4-Average_F0_stressed_match,P4-Average_F0_unstressed_mismatch,P4-Average_F0_unstressed_match,P8-Average_F0_stressed_mismatch,P8-Average_F0_stressed_match,P8-Average_F0_unstressed_mismatch,P8-Average_F0_unstressed_match,TP10-Average_F0_stressed_mismatch,TP10-Average_F0_stressed_match,TP10-Average_F0_unstressed_mismatch,TP10-Average_F0_unstressed_match,CP6-Average_F0_stressed_mismatch,CP6-Average_F0_stressed_match,CP6-Average_F0_unstressed_mismatch,CP6-Average_F0_unstressed_match,CP2-Average_F0_stressed_mismatch,CP2-Average_F0_stressed_match,CP2-Average_F0_unstressed_mismatch,CP2-Average_F0_unstressed_match,Cz-Average_F0_stressed_mismatch,Cz-Average_F0_stressed_match,Cz-Average_F0_unstressed_mismatch,Cz-Average_F0_unstressed_match,C4-Average_F0_stressed_mismatch,C4-Average_F0_stressed_match,C4-Average_F0_unstressed_mismatch,C4-Average_F0_unstressed_match,T8-Average_F0_stressed_mismatch,T8-Average_F0_stressed_match,T8-Average_F0_unstressed_mismatch,T8-Average_F0_unstressed_match,FT10-Average_F0_stressed_mismatch,FT10-Average_F0_stressed_match,FT10-Average_F0_unstressed_mismatch,FT10-Average_F0_unstressed_match,FC6-Average_F0_stressed_mismatch,FC6-Average_F0_stressed_match,FC6-Average_F0_unstressed_mismatch,FC6-Average_F0_unstressed_match,FC2-Average_F0_stressed_mismatch,FC2-Average_F0_stressed_match,FC2-Average_F0_unstressed_mismatch,FC2-Average_F0_unstressed_match,F4-Average_F0_stressed_mismatch,F4-Average_F0_stressed_match,F4-Average_F0_unstressed_mismatch,F4-Average_F0_unstressed_match,F8-Average_F0_stressed_mismatch,F8-Average_F0_stressed_match,F8-Average_F0_unstressed_mismatch,F8-Average_F0_unstressed_match,Fp2-Average_F0_stressed_mismatch,Fp2-Average_F0_stressed_match,Fp2-Average_F0_unstressed_mismatch,Fp2-Average_F0_unstressed_match,Audio-Average_F0_stressed_mismatch,Audio-Average_F0_stressed_match,Audio-Average_F0_unstressed_mismatch,Audio-Average_F0_unstressed_match,Fz-Average_F0_stressed_mismatch,Fz-Average_F0_stressed_match,Fz-Average_F0_unstressed_mismatch,Fz-Average_F0_unstressed_match
stress1,L1,F0,136_280,-5.256817,7.585823,-0.954559,-0.961754,-3.863773,4.641833,-2.029991,-0.540131,7.028051,-11.57822,4.317811,3.967151,4.299339,0.028948,2.931662,3.784892,0.842199,5.861856,-0.934958,-1.731242,-4.609908,4.403649,-2.947907,-0.431267,-4.326365,5.887142,-1.980786,-1.594452,-2.176416,3.262382,-4.163001,-0.282095,9.150826,-4.478934,6.127794,-2.551021,-1.006248,8.165995,-0.622876,-0.30984,-5.087996,4.264043,-0.388976,-0.872666,-4.618506,3.979835,0.259832,-1.160855,-4.53619,5.263991,-0.486774,-1.185986,4.343703,5.55695,4.137417,-1.326464,0.237983,3.922691,5.620107,0.433899,-0.857575,2.658076,2.513676,-0.381488,-0.70806500000000006,1.937439,1.13361,-0.17197,-4.837289,4.063223,1.336302,-0.134788,-1.301838,1.976917,-0.357812,0.976761,8.090635,-10.653841,-0.373552,2.648374,-3.469804,3.545231,-1.231856,1.204309,-4.637664,4.415703,-0.842102,-0.302772,-5.066233,4.181426,-0.974928,0.098216,-5.181765,3.913194,-0.723641,0.2733,-7.113156,1.721801,-5.956422,1.226573,-6.686769,9.918686,-5.17162,2.167636,-4.361001,9.494116,-3.445424,2.927638,-5.098422,3.907867,-2.203273,0.558981,-5.552569,6.356695,-3.866769,0.678277,-0.889245,-9.225047,-13.748517,8.329541,-11.803743,2.52688,-6.345909,0.898551,82.825539,-642.338074,-1345.401001,720.221436,-5.747156,5.04426,-1.918084,-0.032449
stress1,L2,F0,136_280,-3.017158,2.33747,3.309184,-2.795942,-0.407925,-0.92468,1.338026,-0.257323,0.660516,1.505834,2.481065,-3.329426,0.883035,1.070246,1.622154,-2.597306,1.322241,-0.520901,1.179477,-0.633229,0.13161,-2.738916,-0.66803,-0.163141,2.328419,-1.489872,-0.536027,0.096012,-0.135699,0.356861,0.733741,-1.397287,2.080259,3.203008,0.07116,-0.323374,1.104151,-1.105618,0.069893,-0.309233,2.408109,-2.338654,-2.134382,1.18794,1.725546,-1.97194,-1.568017,1.751274,0.199386,-1.504282,-1.192166,1.279538,1.951481,-0.156887,-1.580348,-0.486279,1.617213,-0.718801,-0.692714,0.617301,0.74627,-0.689925,-0.135947,1.439864,0.221505,-0.412598,-1.033093,1.795598,0.293194,-2.466359,-1.722663,0.984234,0.258872,-0.436115,-0.235253,0.72642,2.425808,3.031131,-0.263165,1.691043,0.686629,-2.220336,-2.290749,0.32443,1.522898,-3.309733,-3.311995,0.812762,1.355949,-3.51506,-2.72825,0.879061,-0.459453,-1.649997,-2.79243,0.073115,0.687234,-0.093058,-0.300314,1.278152,1.558305,1.590027,-0.811563,1.489702,-0.349171,-0.082088,-0.794891,-0.299841,-0.950243,-3.332137,-1.488522,0.701301,-0.932189,-2.008338,0.218849,-1.219072,1.051307,1.700302,-0.871503,0.489722,-0.847084,1.115935,3.306575,-2.402644,-257.313904,-538.753967,-635.447266,1672.673828,-1.502022,-2.078046,0.064002,-0.45589
stress10,L2,F0,136_280,0.030721,-10.631691,-4.873641,-4.968812,-1.041517,-3.900727,-5.84023,-0.336652,-0.364513,-1.778927,-14.290787,8.105832,0.89061,0.91408,-9.639932,6.49726,-1.41305,-2.350451,-8.472379,3.397252,-2.939741,-3.787437,-3.237663,-0.942573,-3.237732,-1.748839,-5.467546,0.364887,-0.98635,-0.828886,-6.618467,3.453145,4.152854,6.358229,-2.068893,6.669386,-2.655464,-0.505588,-4.983717,1.597642,-3.509868,-1.188339,-3.934609,-0.81318,-1.938451,-0.347487,-3.166878,-0.888876,-2.892226,0.300516,-3.335999,-0.149831,-0.491446,1.753962,-3.014455,2.57097,-0.530697,3.461177,-3.831795,0.60939,0.423808,3.499182,-3.267775,0.320328,-0.101987,2.456464,-2.145365,-0.433877,-3.683037,0.779415,-2.374774,-2.824697,-0.739074,1.038244,0.220489,-0.854707,3.85493,6.60658,4.469857,4.166006,-3.687119,-0.442271,-0.713279,-2.618547,-3.164799,-1.834448,-2.204127,-1.389353,-4.063487,-2.60194,-2.333925,-2.299681,-4.329318,-2.274839,-0.196706,-3.052698,-2.830117,-0.369745,2.70142,-3.55369,-1.017761,1.228933,5.128199,-5.393313,-4.215033,-0.439677,3.072529,-6.146574,-4.263991,-4.267815,-0.7965,-3.508456,-4.494522,-4.035636,1.599834,-5.826917,-3.295334,0.020318,8.576841,-10.48365,-3.215263,-10.481106,2.96569,-8.548083,991.672119,-676.151855,1554.455444,-190.692917,-2.669263,-4.321604,-0.800322,-3.611797
stress11,L2,F0,136_280,-7.209719,0.431455,-6.123008,-10.854908,-8.345563,0.412204,0.935056,-6.461031,-23.599031,-10.344409,-4.900907,-12.701107,-18.11598,-8.782772,-0.584951,-4.694685,-10.084723,-1.412545,-0.277975,-4.481384,-3.144057,2.170077,0.24972,-3.322435,-2.640738,1.13664,-0.594958,-2.507224,-11.841413,-4.367686,-1.602458,-2.34399,-7.627334,-8.816301,1.806863,0.623948,-3.703307,0.353364,0.15495,-0.168596,-0.562734,2.278722,-1.728288,-2.790577,-1.215381,1.82169,-1.033227,-4.602106,0.065177,1.945304,0.654172,-1.107939,-2.436886,-0.491676,1.101452,3.562917,2.441704,2.35613,1.800158,0.894518,2.949319,1.909191,1.200224,0.826491,3.974685,1.932612,2.59059,-0.971626,1.342266,1.606523,-1.659613,5.941553,4.872948,2.684173,1.824089,0.410602,6.646871,-2.830479,2.191245,4.027006,2.97629,2.238906,-1.81714,2.412268,0.299439,2.18775,-1.772342,-1.486802,-1.129716,1.766707,-1.357892,-2.897738,3.447227,1.63929,-4.45436,0.304293,6.575851,5.807627,-1.532717,1.903373,14.531616,7.142101,-0.555716,6.261651,11.663301,6.63465,-2.475435,4.357577,1.475914,3.623835,-4.042207,-1.234325,7.325407,6.025398,-4.805285,1.958763,23.274132,10.003689,-0.696483,7.856959,11.208277,-6.261791,-11.706066999999999,-7.944833,905.009094,-723.90686,1244.590332,-443.224365,0.32682,3.88226,-1.332702,-1.550318
stress12,L2,F0,136_280,1.086976,1.132505,-0.077467,-0.814025,0.759005,4.602423,1.726601,-0.93684,0.064118,2.024822,1.801219,-0.140043,2.313026,0.54604,-0.913418,-1.574158,0.57432,3.750794,1.618483,0.521397,0.59635,3.933563,1.516059,-1.219792,-0.795884,3.711868,1.68877,-0.377399,-0.266516,2.126569,1.335477,2.016974,-3.643397,-6.976192,0.467043,2.263968,-1.657384,1.209439,2.527192,0.672858,-0.783569,2.766122,1.338651,0.949832,-1.978215,0.246211,1.36329,-0.581983,-1.573051,1.028394,2.075425,1.671631,-1.717357,-0.889064,1.823115,2.271691,-1.718672,-2.149373,1.760223,2.160075,-2.069223,-2.837424,0.238286,0.830046,-2.825346,-4.01176,-0.33116,0.228796,-2.309001,-2.595038,0.803715,-1.587896,-2.294069,-4.373993,-0.537591,-1.155453,-1.846852,-6.235484,-1.205232,-0.096264,-1.145813,-1.612498,-0.246773,-1.770179,0.212317,0.644847,0.181893,-0.410128,0.06727,2.997059,1.145856,-0.113578,0.292625,-0.037548,0.327683,-0.893253,-1.056054,-0.701762,-0.401571,-1.435797,4.740574,-1.90188,-3.025671,-1.200214,2.267898,2.058244,-1.601775,-1.534266,1.981618,3.347941,-0.111741,-1.864629,1.389556,2.150045,-1.09859,-2.302745,3.670823,5.382652,-2.001338,-3.924042,1.847045,1.41499,-1.053571,-1.37323,36.277035,-796.288635,656.582092,-149.935654,1.830083,4.403893,0.246062,-0.722569
stress13,L2,F0,136_280,-2.913627,1.255324,-0.62106,0.541181,-2.825431,3.418703,1.476435,2.456435,-1.649436,1.923366,0.238874,1.823176,-0.598036,-0.419426,-3.162387,1.917961,-1.495095,2.488256,1.973969,2.241925,-3.585325,1.184445,2.303144,-0.834703,-1.812872,1.598722,3.488673,-1.357005,-0.086766,1.176248,1.280549,-0.823452,2.994301,-3.923013,-3.491579,-0.536956,-0.324598,1.169016,2.887288,-1.652192,-0.692862,0.175881,2.070757,-3.500148,0.400824,-0.679106,1.506311,-5.462337,0.80268,0.402337,2.552963,-3.651785,0.641473,-0.083016,1.942429,-1.153723,2.24681,-1.65772,0.466505,-2.567135,2.580501,-2.454025,-1.003694,-2.53797,1.781135,-2.201551,-0.434346,-2.887274,0.676759,-1.594989,0.663902,-4.89205,0.938996,-1.317869,-0.41305,-1.213153,4.214967,-3.045914,-2.279241,-0.02265,-0.805131,-1.327811,1.16878,-2.639902,-0.829334,-0.466805,1.874447,-5.133544,-1.068839,0.231667,1.74531,-2.942549,-0.731695,0.011839,1.581476,-3.350133,0.182851,0.34177,0.983944,-1.428609,-0.410626,0.776812,-1.0057449999999999,0.4464,-1.104923,1.838182,2.134468,-1.253837,-1.339123,1.369385,3.546457,-2.326182,-1.759891,1.733342,1.44269,-2.027052,-0.282981,1.41759,3.781467,-2.238559,-1.812564,1.000455,0.023598,1.248608,1187.07251,-575.180664,1685.706299,-488.291016,-2.403089,2.322976,1.923608,0.186535
stress14,L2,F0,136_280,-5.094007,2.128478,-2.569245,5.771324,-3.143452,2.051754,-2.271457,6.490594,-8.132565,3.615051,-2.395368,6.396179,-3.41316,1.090651,-1.118843,1.682171,-2.065493,2.415464,-2.444448,4.721153,-0.326781,1.391739,-0.909329,5.91551,-0.730616,0.411276,0.027114,3.01873,-2.690612,1.776048,1.148392,3.063843,0.418878,-2.37805,5.540963,-5.050307,-3.569937,-0.312465,0.987417,1.865436,-1.622091,-2.118161,2.39169,1.578345,-2.366032,-3.275419,4.069012,-1.147974,-3.616976,-3.413864,3.542922,0.507942,-2.943612,-2.187998,2.715816,0.026276,-4.044839,-3.475561,4.709746,-0.447599,-3.789775,-4.300713,4.466156,-2.519282,-3.77254,-4.973528,2.25694,-3.124146,-2.06156,-1.549258,1.466913,-2.601146,-1.415974,-0.827993,1.868456,-2.94423,3.162999,-3.990233,6.030963,-8.417882,-2.224938,-0.234973,-1.419284,-2.058189,-1.840088,-1.975745,1.074404,-0.500228,-0.067952,-0.796402,1.293603,2.588918,-1.107454,-0.442587,-0.350453,-0.633647,3.436425,-1.96451,-1.467761,-0.979833,8.360287,-3.835627,0.843383,-3.596558,3.068251,-0.297757,-2.530879,-0.003892,-0.942097,1.468154,-2.605822,2.830337,0.749354,0.878113,-4.442249,1.977872,7.66079,-2.337811,-1.250497,-0.568339,-2.294652,3.317466,-4.42287,3.601199,1171.644897,-666.928223,1619.890625,-643.596802,-1.19396,2.122762,-3.85731,4.489396
stress15,L2,F0,136_280,1.534803,0.163326,-3.253771,-0.07362,2.010722,-0.165543,-1.767771,0.347423,2.105879,1.640244,-1.467902,-0.133132,2.15256,1.648565,0.823105,0.556003,2.013893,1.758472,-1.745856,0.853838,1.133667,-1.677211,-2.214566,-1.22782,-0.320674,-0.307894,-2.406806,1.17506,0.823715,2.037704,-2.020407,1.67437,0.037055,2.606717,2.677006,1.906802,-0.128471,-0.724703,-1.337315,1.681297,-2.133704,-4.7597950000000004,-2.510348,1.049308,-2.608198,-7.262929,-2.098805,1.487992,-1.098713,-3.55883,-0.850509,2.281418,-0.574782,-1.162748,-0.406157,1.58746,-1.884743,-2.674324,2.445754,3.130151,-2.052728,-4.008284,2.762576,2.643151,-1.911691,-5.242685,2.696676,2.64942,-2.562279,-6.67362,0.389574,0.968475,-1.714832,-2.961364,0.934587,2.47952,-2.956147,2.569872,7.659492,2.510983,-1.671572,-3.892752,-1.08579,0.012346,-3.100511,-6.580928,-1.866942,-0.199253,-1.140549,-5.309793,-3.139827,-0.997948,-1.378603,-3.587424,-1.025503,-0.963658,-1.859045,0.415087,-1.131041,0.183503,-0.450755,1.56878,0.229128,1.042656,-0.780738,-0.245961,-1.132706,-1.319291,-0.67206,-2.928477,-1.244274,-1.666261,-0.02615,-1.925734,-1.026055,-0.596964,0.684208,0.493239,-0.654622,0.869535,0.643111,-2.570659,-3.52349,5.534426,1079.473389,-490.244415,1536.838867,-440.824524,0.973031,-1.72553,-3.445498,-1.472595
stress16,L2,F0,136_280,-46.845768,-28.930489,-3.870444,-4.784011,-11.588895,-7.664838,-1.860057,-1.334564,-10.181188,-6.268627,-2.242855,0.050274,0.104892,-0.24572,-0.794793,1.974548,-3.804128,-2.91101,-1.317028,1.555688,-3.346581,-3.749742,-2.048154,-0.576406,1.734588,-0.665148,-1.985504,0.556319,2.360185,0.311131,0.577381,1.800485,12.036023,9.394574,3.869451,2.759278,3.105325,0.452463,-1.178421,0.645398,1.740616,-0.145234,-1.192544,-1.367594,2.132285,-0.343623,-1.168088,-1.6036300000000001,4.206196,-0.539016,-1.34092,-0.653458,4.418853,1.420471,0.802662,0.502418,5.134186,0.379618,0.279207,-1.561561,4.482424,0.354035,0.690579,-3.02529,3.169625,0.922768,-1.980695,-4.839157,1.329537,-1.435949,-0.906724,-2.400734,2.27074,1.586816,-0.686403,-3.087724,11.234616,11.074958,2.87498,0.239988,0.740754,-0.116988,-0.519915,-1.613103,-0.116392,-1.053958,-1.051057,-1.725288,-0.840036,-1.538508,-1.142508,-1.568067,-1.168041,-1.022362,-0.176514,-1.090624,1.049581,2.682525,0.211494,0.682751,1.535778,1.759126,-0.580417,2.308676,-2.153119,-0.992304,-0.31186,0.529593,-3.374315,-3.963819,-1.738078,-2.203937,-8.91412,-6.841441,-0.985089,-0.69725,-6.035775,-1.858729,-1.628548,2.0081,-32.601532,-21.948633,-3.881154,-1.967681,1048.19458,-442.198029,1408.440063,-274.067047,-7.756884,-6.823181,-2.248144,-0.999756
stress17,L2,F0,136_280,-2.531475,-2.178745,1.081586,-5.468116,-3.644962,-1.536352,-4.717227,-3.792545,-1.046671,0.823742,-3.580167,-3.486767,1.146113,1.548435,0.643321,-1.386392,-2.214916,-0.153858,-4.623443,-2.684777,-4.076973,-1.962931,-5.462138,-3.609622,-2.101595,-2.40179,-4.081039,-2.088129,-0.133215,0.316876,-1.27963,-1.193017,7.022954,3.312187,3.389365,4.17435,-0.691672,-1.454036,-2.505686,-1.061149,-2.247703,-3.21806,-3.925249,-3.480065,-2.360544,-3.544044,-2.740064,-3.925658,-1.383845,-3.576867,-2.060079,-1.821023,0.332902,-0.696388,-1.212166,-0.289489,-0.528205,-2.136217,0.018285,-0.129069,-0.510473,-2.224651,-0.057199,-0.049414,0.04839,-1.610663,0.565503,0.149794,0.390267,-3.116443,-0.033776,1.02273,0.98316,-1.59239,1.096719,1.310426,7.505687,2.841112,6.839065,7.72246,-0.283179,-2.382783,0.756891,-0.155746,-3.185826,-3.978067,-2.571102,-3.887944,-4.140694,-3.695774,-5.449131,-4.242235,-3.075839,-3.087279,-1.786794,-2.352829,-0.451632,0.099227,3.059906,1.506263,-0.445071,1.607243,8.013207,3.049625,-2.924468,-1.33028,1.607882,-1.409541,-6.460585,-2.712436,-1.937727,-5.131946,-5.143318,-1.404422,-0.849752,-2.758883,-2.731628,0.493548,7.732199,0.830671,-3.195083,-0.824963,3.922575,-3.0807890000000002,1062.564087,-542.38855,1456.305054,-284.143463,-4.84288,-2.0511,-3.409476,-3.965603
stress18,L2,F0,136_280,0.007685,0.860724,-0.442867,-0.223707,-0.661509,-1.23284,1.747307,-0.167795,0.420702,1.072897,1.318784,0.719763,1.73299,1.522307,-0.032857,0.225525,1.056596,0.387058,1.268954,1.534092,0.481788,-1.532659,2.311423,-0.915134,1.796587,-0.626385,2.531446,-0.198865,1.880628,0.576354,1.487006,1.01018,1.599878,3.198849,-1.791792,1.808308,1.574062,-0.401171,2.548686,-0.667373,2.789128,-0.781251,0.689514,-2.114931,2.621585,-0.304226,-0.403804,-3.788168,2.697562,-0.188195,0.960273,-2.968629,2.249257,-0.218887,2.182197,-0.009576,3.743418,1.022383,0.043972,-1.528736,3.338112,1.004521,-1.306487,-0.796539,1.980169,0.289501,-1.540194,-0.761756,1.15441,-2.389936,-1.354247,-2.399223,0.489042,-0.819396,-0.89821,0.014646,-0.524085,2.804885,-3.729255,0.58492,-0.998331,-3.102655,-1.170326,-1.183506,-0.131088,-2.199335,-1.899413,-3.306695,1.340802,-1.221547,0.507257,-2.199005,-0.115302,-3.728025,-0.46783,-2.76052,-0.46272,-1.135318,-2.150776,-2.343542,-1.776841,1.642773,-1.219201,-1.523118,-1.725939,-1.413823,0.35166,-1.971995,-1.485718,-2.012691,1.469816,-2.942211,-2.258983,-0.212898,1.17664,-2.280095,-3.467753,0.723114,-1.810215,-4.234296,-1.271329,1.668005,-0.026615,-2.247176,994.685974,-671.710571,1084.156372,-335.773102,-0.358596,-2.001245,1.840348,-0.797741
stress19,L2,F0,136_280,-1.607606,0.487196,-0.635014,1.400668,-0.930787,-1.027637,-1.578033,3.788102,-1.33978,-1.416305,-0.757514,2.821185,0.723767,-0.891686,0.039223,-0.201601,-0.291569,-0.981864,-0.669049,3.181031,-1.3073,-0.65292,-0.937215,3.054418,0.303354,-1.165691,-0.516805,2.477051,1.803289,-1.733875,0.838571,0.396034,3.038915,-0.489805,2.228169,-3.961685,1.614162,-1.377865,-0.369278,0.845479,0.159545,-2.190375,-1.572359,-0.548438,1.532161,-2.223397,-1.611801,-2.032559,2.312422,-1.769811,-0.229266,-1.985494,1.360141,-1.586006,0.380562,-1.451696,3.410426,-2.212321,0.31081,-0.760146,2.50408,-1.080246,0.498447,-2.82348,2.951471,-1.367378,0.697071,-3.280708,1.682618,-1.86202,0.406165,-2.941655,1.427831,-0.802182,1.843419,-2.81168,0.923647,1.524389,3.293438,-3.718107,0.673915,-1.405861,0.395079,-1.991254,0.605451,-2.946323,-0.90685,-1.300122,-0.695055,-1.928053,-1.437679,0.511379,0.01145,-0.642087,-0.481523,-0.420707,0.648627,0.29047,1.456326,-1.182559,0.935311,0.316287,1.983797,-1.522378,-0.30095,0.796037,0.312278,0.219191,-2.25302,-0.44875,-0.420374,0.658336,-1.429155,0.411599,0.424602,0.809873,-0.774387,0.781563,2.122822,0.087026,-0.669898,1.347775,-0.20853,-0.589261,947.544189,-613.630554,774.12561,-541.179749,-1.320853,-0.344862,-1.840534,2.55993
stress2,L1,F0,136_280,2.356765,0.993018,0.512096,0.814553,2.259122,-0.259966,0.552265,1.310344,2.244578,0.046672,0.653381,2.150415,1.95085,-0.206219,0.471097,0.934631,1.478158,-0.60507,0.206729,1.659431,0.285662,-0.588171,0.80553,-1.205092,0.197318,-0.290536,-1.369455,-0.369398,1.553946,0.006407,0.272887,0.601513,-0.096707,-0.031485,-0.68698,1.120748,-0.662303,0.88472,-0.655363,-0.092731,-0.875468,-1.45568,-1.160022,-1.923973,-2.246382,-0.514439,-1.741401,-1.258469,-2.059254,0.231696,-1.15217,-1.163566,0.297637,-0.345444,-1.618022,0.395268,-2.255234,-0.032647,-0.917852,-0.844876,-2.109014,-0.23066,-1.540976,-2.095573,-3.007478,-0.102281,-2.248625,-1.755798,-2.966252,-0.235561,-1.907884,-0.507161,-3.122083,-0.278873,-0.654993,-1.065523,-1.253295,0.74236,-1.029127,-0.754302,-2.657587,-0.528306,-1.342219,0.094632,-2.674655,-0.549681,-1.55837,-0.614014,-0.919359,-0.514245,-1.842706,-1.590248,-1.798725,-0.176819,-1.379861,-0.436741,-1.812994,-0.672291,-0.040251,-1.719856,0.791683,-0.185554,0.211181,0.450124,-0.21634,-0.763176,0.260628,0.523257,-0.124604,-0.399353,-0.391992,-0.845512,-0.162228,1.200566,1.533183,-0.185676,1.980828,-0.736243,1.604664,0.392216,1.45355,0.346733,3.101459,-1.681279,-74.734863,-481.986237,-1231.49707,776.924744,0.450001,-0.236958,0.572036,-0.122148
stress2,L2,F0,136_280,-2.355337,-1.326708,1.438397,-0.077871,-4.712322,-0.922316,0.656276,-0.007224,-2.037301,0.365444,1.167027,-1.726344,-1.007538,0.327671,2.78619,0.722242,-2.127378,-0.937015,0.506287,-1.105017,-5.673626,-0.752385,0.596509,-0.576028,-3.128265,-1.489887,0.344358,-2.545816,-0.582972,-1.715959,1.522637,-0.150114,8.027372,-0.361391,2.412839,4.686078,0.907084,-1.355976,0.566397,-0.252457,-1.75194,-2.594105,0.902244,-2.212048,0.541151,-1.594006,0.082118,-2.304805,0.106659,-1.954504,1.511358,-0.293696,3.293941,-0.184793,1.680493,4.186839,3.339511,1.040573,1.511362,3.866448,3.452373,0.52778,2.369315,2.099945,4.045771,0.671642,1.258718,1.34727,1.183894,-0.833729,-1.222041,-2.431647,2.910833,1.191778,0.998905,0.273739,6.967649,0.059573,3.514423,1.677611,0.186043,-0.955893,-1.06208,-3.031769,-1.933341,-1.900921,-0.587923,-2.821029,-4.234088,-1.89043,1.024929,-2.920273,-3.622915,-1.805939,-1.567149,-5.774368,0.268891,0.231002,-0.152407,-2.588731,-0.719652,-0.781447,0.118831,-3.410353,-3.834633,1.321045,-1.381163,-6.919443,-6.838321,-0.319447,-1.27617,-4.655632,-3.828534,0.138949,-1.858657,-5.66061,-3.254851,-1.899876,0.630054,-7.12537,-3.907758,0.790498,0.371575,-5.062199,-293.054321,-526.401123,-700.101929,1645.311157,-4.99834,0.100606,-1.975753,-2.121229
stress20,L2,F0,136_280,-18.655058,-12.306737,-2.630055,-8.690288,-4.307809,-4.490563,-2.524308,-1.8601,2.79359,-6.94121,0.001186,-1.899213,5.832471,-2.991028,-0.213332,1.191917,0.868583,-3.524012,-1.642483,-0.097414,-2.7662,-1.654207,-2.616458,-1.694433,-2.102757,-0.720208,-1.74099,-0.710968,2.167419,-1.194267,-0.151734,0.015308,8.958192,0.942435,3.951269,3.661099,-0.185752,0.458959,0.362634,-0.083441,-3.440975,0.407066,-1.645871,-0.926114,-3.249099,1.80793,-1.257577,-1.262931,-2.144032,2.012993,0.768666,-0.668668,0.716167,-0.069461,3.322337,-0.152182,-1.221368,2.830051,3.021369,-0.785798,-1.176732,3.016853,1.64054,-0.712352,-1.100568,2.441295,1.543069,-0.155425,-2.425017,2.570661,-0.501908,-0.613657,-0.849398,1.268379,2.42547,0.112579,7.163508,3.199924,4.141829,2.510305,-2.007179,2.043914,-0.398168,-0.577558,-4.601676,1.43468,-1.775165,-1.25957,-4.082662,0.601439,-3.307909,-1.324208,-3.899429,1.167831,-1.484466,-1.60748,-0.794489,1.698237,-0.230512,-1.606454,1.488866,2.219054,-0.664423,-0.198953,-4.113748,0.416852,-2.445245,-2.68536,-4.015483,0.048674,-2.599711,-1.086174,-6.119402,-0.746123,-2.935883,-2.970851,-6.047958,1.540474,-3.651931,-2.820374,-16.742292,-7.812803,-3.297647,-6.560805,951.971008,-620.4328,1024.982056,-154.960327,-5.373899,-1.380787,-2.697698,-2.057134
stress21,L2,F0,136_280,-1.172646,-0.096271,-0.84898,-1.689252,-0.525576,-0.305975,-1.560444,-1.342535,0.157282,0.746606,0.890817,-2.247949,-0.024899,-0.162096,-0.370158,0.17873,-3.889422,-0.57414,0.254816,-0.648282,-0.072968,0.98243,-2.394229,-1.711808,0.683018,1.879259,-1.100525,-1.379232,-3.903706,0.006255,-0.00893,-0.553371,0.540525,0.16193,3.493809,2.52791,0.275179,0.782793,-0.887218,-1.33001,-0.445442,2.567615,-2.263236,-2.655484,-0.032222,3.511322,-0.982487,-1.546281,-0.044557,3.240907,-0.700904,-1.181452,0.240457,1.757108,0.164156,0.100548,0.101975,3.736781,0.271819,0.222139,0.746716,3.774194,1.116449,0.896525,0.330721,3.419401,1.048322,0.272011,-0.859513,2.97159,-0.012669,-0.896492,-0.500245,1.929617,1.136522,-0.373228,1.46304,1.254099,3.694623,2.105499,-1.0903,1.634645,0.357405,-1.481963,-0.822935,2.288411,-1.767488,-2.391261,-1.975196,1.64483,-1.873418,-3.379213,-0.980212,1.134461,-1.067022,-1.927072,-0.78581,1.264577,1.190037,-0.758512,-0.368994,0.574314,0.976359,-0.828197,-3.200457,-0.024633,-0.013537,-0.976509,-1.980401,0.462425,-2.563699,-2.65468,-1.808066,-1.759647,-1.712872,-0.88331,-1.898517,0.246025,2.476854,-0.605313,-1.861254,-0.632969,1.063476,-1.396622,990.505737,-530.772461,979.843079,-322.571533,-0.667855,-0.472009,-2.396145,-1.54447
stress22,L2,F0,136_280,1.991253,2.970558,2.216169,-6.707373,1.074399,0.540362,-2.975397,-3.960324,1.687939,-1.181217,-0.96225,-1.189531,2.040109,-2.787786,0.096226,1.082941,0.263564,-1.386023,-2.796284,-0.778914,0.283872,0.683304,-5.596919,-3.113155,-0.427223,0.317346,-4.109156,0.219631,0.689857,-2.859061,-1.27405,1.166528,-0.810519,-2.236615,4.166756,4.533116,-1.013788,-1.968506,-2.563001,0.089074,-1.731652,1.32288,-4.125704,-0.003108,-3.351233,1.703492,-2.771136,-0.603897,-1.807823,-0.396828,-3.156691,1.044901,-1.148287,-2.600825,-2.032408,0.886276,-4.115611,0.090628,-0.704933,-1.593932,-4.333144,0.860427,-0.259926,-1.802445,-4.356158,0.606968,0.151339,-2.596151,-2.530184,2.063862,-1.291365,-1.500267,-2.931083,1.411049,1.670225,-2.138536,-3.479024,0.492309,7.118687,3.80993,-0.994013,2.490633,0.120947,-1.402025,-2.059685,1.863227,-3.165719,-0.400288,-1.078482,1.102175,-4.235661,-0.717364,-0.262361,2.232727,-2.647502,-2.074796,-1.195953,2.433809,2.47443,-0.953146,-2.148934,0.595591,3.389352,0.951139,-1.303844,2.402413,0.734368,-1.92438,-0.029383,1.966697,-3.577447,-3.160765,0.250107,2.675376,-1.05394,-3.716004,-1.016832,2.1757,2.744033,-0.60533,1.005551,5.48084,3.033434,-4.256316,716.285583,-771.174622,1032.876465,-201.657516,1.429848,0.581436,-3.761815,-2.781015
stress23,L2,F0,136_280,1.156208,9.953605,-0.029628,-1.485536,0.771084,5.414637,-0.887941,-0.043042,0.25954700000000003,12.528722,-1.644571,0.268328,1.739585,8.438826,-2.095644,1.427839,2.672775,5.162594,-2.156347,1.444416,1.748344,3.18573,-1.031283,-1.781716,2.187308,1.619321,-1.092092,-0.032106,1.638028,4.786666,-2.401365,-2.006281,-8.972385,0.019635,2.860763,2.49155,0.925093,2.247453,-4.218002,2.026834,1.973779,-0.83079,-0.225678,-2.590957,4.335666,-2.815487,1.039226,-3.125154,3.591564,-2.014411,0.11836,-1.710947,2.635789,-1.697191,0.726496,1.334912,2.621657,-4.852521,2.482876,-3.750345,3.726324,-4.451763,1.798701,-3.793977,4.116147,-4.654716,2.340771,-4.416332,3.621429,-3.021086,1.504162,-4.44288,1.841263,-5.124519,5.52141,-2.566392,-1.882152,-6.341811,1.936812,0.765421,3.496132,-3.524619,0.645563,-2.005207,4.07672,-1.091937,-0.502208,-3.000656,4.042647,0.986703,-0.506022,-1.492001,2.699136,-1.238329,0.239946,-1.732675,-2.134408,-3.641699,1.240596,-4.423547,3.479433,-9.547924,0.266544,0.935292,1.540233,-4.911768,3.513964,4.709053,1.759408,0.901854,-0.546656,-1.740755,2.424329,1.015565,-2.337799,-1.414372,-0.439713,-10.854659,-0.724887,-2.058877,0.578507,2.067843,2.284028,-3.973724,455.312073,-798.304016,874.849182,-94.547829,3.618179,2.107394,-1.599191,-1.085655
stress24,L2,F0,136_280,4.761906,2.368579,-9.973772,-2.455824,1.615134,1.28071,-3.694422,-1.966703,4.09829,5.642573,-3.256208,-3.500543,1.529836,2.984334,2.505473,0.046276,0.654885,2.773186,-2.398762,-1.178412,-2.868025,-1.332347,-3.355776,0.447574,-1.878189,-0.18622,-4.049877,1.455173,-1.154316,1.848201,-0.419227,0.917663,6.569415,3.804441,4.101497,1.396489,-1.403926,-1.098391,-1.932819,1.665174,-3.511281,-1.719303,-4.678469,1.640138,-3.61085,-4.008804,-4.859029,-0.353784,-2.445246,-2.170819,-2.704398,-0.531835,-0.777856,-1.36838,0.082805,1.122787,-2.385606,-3.647245,-0.664994,-2.036463,-3.165705,-4.016623,-1.346088,-1.177961,-3.765753,-5.607022,-1.98459,-1.059806,-3.940287,-5.883669,-4.886152,0.009048,-2.3907,-6.129602,-2.010358,0.172986,-0.326747,-0.208152,3.649276,0.54667,-3.311072,-6.179097,-4.067746,-0.378478,-4.365412,-3.852926,-5.342206,0.010632,-5.257183,-2.098798,-5.145964,1.74014,-4.361125,-4.137337,-4.003734,-0.279137,-3.960954,-2.716495,-3.189386,-1.521149,-2.671518,0.954163,1.1947,-0.514926,-3.638343,-2.930859,-2.007469,-1.958531,-4.021842,-2.026355,-3.699747,0.357025,-2.288045,-2.605876,-3.002678,-0.169402,-3.049318,0.175459,0.411904,-1.372092,-0.255157,0.489787,-7.895237,-2.933121,756.747437,-679.762634,695.169739,-131.532776,-2.080889,-1.198761,-2.583591,-0.647719
stress25,L2,F0,136_280,-1.634745,0.496132,-2.376707,-0.962976,-0.735736,-1.087135,-1.438644,-0.418281,-0.911597,-0.529741,0.480743,-0.499266,0.482373,-0.188555,1.669597,0.50214,0.165077,0.119157,-1.262832,-0.522093,-1.412473,-0.756383,-2.58082,-2.337162,0.185634,-0.565624,-2.515012,-0.933766,0.55021,0.574393,1.385708,1.803042,2.690799,2.701533,3.242456,3.540702,1.806458,1.329932,-0.86907,-0.125782,-0.804653,-0.83713,-4.20277,-1.277333,-0.476576,-2.089191,-4.189182,-1.267501,1.955135,0.254762,-1.970864,-0.448299,2.448142,1.012082,1.455876,1.832173,-0.114022,-0.286256,-0.196832,1.251775,-0.980628,-0.959239,-1.240127,0.449191,-2.854136,-1.142074,-2.29346,0.260987,-1.099802,-1.941038,-3.489817,-0.486048,-1.608894,-1.349055,-1.821232,-0.829496,0.749642,-0.456835,2.119624,1.819875,-0.762524,-1.137448,-2.516147,-0.712775,-1.07803,-2.567841,-4.825013,-1.565391,-1.283993,-1.831342,-4.590692,-2.572533,-1.582744,-0.725863,-3.146812,-1.300872,-0.378763,-0.588232,-1.261331,-1.371864,-2.039378,0.309833,-0.291957,-1.241887,-1.837657,0.084321,-1.50562,-1.355656,-1.98817,-0.724449,-2.150416,-2.488242,-1.535503,-0.49861,-2.250822,-3.011915,-2.824013,1.024388,-1.006578,-1.420841,-2.029375,0.717398,-3.0244,-2.328259,757.126099,-1023.993835,933.778442,-65.677437,-1.146813,-0.748232,-1.787359,-1.78686
stress26,L2,F0,136_280,-3.133857,-11.252694,3.730335,-9.493787,1.038525,-2.888399,2.551577,-1.053363,-0.656049,-0.114457,2.515407,-5.336214,0.597266,1.032342,2.176814,-2.748729,-0.02121,-0.285975,1.329188,-0.982074,1.663113,-2.159389,1.685666,0.13632,2.286479,0.31181,2.926385,1.164397,0.820112,0.816325,1.222967,0.852186,-1.858475,5.89076,0.318085,-1.352879,1.541003,1.131847,1.064273,-0.898701,1.30668,-0.43516,2.02915,0.571648,-0.195097,-0.622871,2.305677,-1.166507,1.198102,0.151543,1.097596,-1.095053,-0.487615,2.269463,0.069176,-0.252389,-1.810549,1.254484,0.75432,-1.024991,-3.080728,-0.500811,1.860242,-1.195865,-2.026529,0.36831,1.62593,-2.057213,-0.600877,-1.715801,1.279226,-1.736705,-1.226092,0.386946,1.298275,-0.564576,-2.891963,4.718241,-0.199319,-1.08258,0.96781,-1.198921,-0.351066,-1.467909,1.362499,-2.060626,1.144083,-0.794008,1.179706,-1.075194,2.106863,-1.131135,1.047189,-2.534703,0.784462,0.287988,1.765667,-0.249041,-0.402779,2.306207,3.062701,-0.700818,-1.404405,4.4248710000000004,3.316781,-2.94876,-0.704741,3.589851,1.3474410000000001,-2.608958,0.067381,0.753671,2.357798,-4.474228,-0.801281,4.325175,4.92227,-4.216918,-1.504668,4.538582,2.143981,-9.646857,2.312728,-1.930842,711.890503,-664.490356,689.091003,-261.56955,1.583478,-3.536333,-0.039589,0.81182
stress27,L2,F0,136_280,-18.343678,-12.832439,-34.07156,2.346129,-5.681418,-3.04627,1.73652,11.55502,-8.304941,6.184756,21.88035,26.637102,-0.799939,5.054147,21.517759,15.325071,-4.425581,6.386303,14.737086,14.28229,0.590766,-1.8951,-2.226131,3.666471,0.980647,-0.760475,2.39458,7.677439,-1.260621,3.620623,12.551811,7.934236,0.853909,5.395342,18.438747,4.284195,0.920963,0.469774,4.06988,4.787055,2.360305,-0.321017,-1.443596,1.63423,2.023183,-1.170183,-3.064394,-1.166585,2.320932,-0.240325,0.058537,1.978213,0.584394,0.886063,4.522977,1.673158,1.835394,-0.546164,2.094484,-0.536562,1.439549,-0.459258,1.779508,-0.998241,2.070184,0.01687,-0.256339,-2.783485,2.045744,0.040225,-4.362078,-2.314,2.876111,-0.265535,-2.343372,-3.017545,3.404124,3.82035,8.10682,-2.309904,2.35935,-1.513674,-6.813772,-3.356015,2.031638,-0.862768,-5.967262,-2.382825,2.1052,-1.142907,-5.051979,-2.108505,2.797378,-1.327572,-9.552041,-4.572738,3.087245,-2.390146,-8.969348,-6.301243,4.776846,-5.254021,-11.87792,-11.250989,3.301486,-4.99222,-12.562917,-9.784208,1.254867,-1.881295,-8.514421,-3.838323,-0.430208,-5.127772,-15.122303,-7.018632,4.43282,-10.47445,-24.345997,-17.210783,-14.348433,-8.787642,-31.574144,-0.455754,1498.420776,-174.421768,2478.979248,-552.37323,-1.419342,-3.071898,-8.848523,-0.658098
stress3,L1,F0,136_280,-2.843467,11.056314,-18.115168,-34.582314,-4.37348,3.466223,-7.960753,-13.646888,0.003445,2.569616,-9.781264,-17.208921,2.00861,-0.071881,-2.08437,-2.569887,-2.36289,1.302114,-4.646891,-8.673072,-4.224164,1.841032,-4.609333,-7.422985,-3.528544,2.27571,-3.030273,-3.96149,-0.189559,0.800262,-0.957538,-2.668889,7.659863,-3.22639,8.333298,12.855552,-2.133364,2.827058,-0.796959,-1.156277,-3.040219,2.510981,-2.718579,-0.952695,-1.814379,2.305654,-2.352245,0.984051,-2.621129,2.41764,-0.086039,0.808567,1.482424,2.110385,1.666593,2.893629,3.172032,0.661631,0.967247,6.656204,3.461019,-0.854803,1.452645,6.811278,4.664958,0.344606,1.202232,6.976295,-1.908748,1.02264,-1.597282,2.034183,0.205735,-0.988637,-0.340233,4.089957,4.061633,-4.287178,8.458474,16.534502,-3.723955,-0.242179,-0.951379,1.427273,-2.7232,1.141603,-2.664849,0.555574,-3.018515,0.636454,-3.851367,-2.005573,-2.931928,1.274067,-2.000726,-0.037015,-0.830468,-2.040002,0.998111,4.336743,2.885122,-2.005316,3.950313,8.713996,-1.931966,0.551229,0.080003,0.132742,-2.729897,0.892174,-2.733175,-3.865344,-2.452507,2.670939,-3.499932,-6.632214,0.431473,0.844146,2.279189,5.45577,-4.181567,9.192182,-14.280847,-26.864817,-184.162674,-243.161438,-1177.675537,2020.31604,-3.907164,2.504524,-5.597255,-9.796684
stress3,L2,F0,136_280,-1.300052,1.771444,0.258334,2.54096,-1.207612,1.513222,-0.500367,0.053576,2.021462,2.254995,2.222681,2.537366,3.700111,0.91056,2.450814,3.201883,0.025725,1.708079,-0.110069,1.760467,-2.263478,0.302054,-1.407678,-0.54792,-2.516471,-0.251617,-1.252701,0.419595,2.055811,1.295893,2.343762,2.572374,4.873744,-0.851567,1.180351,4.702147,-0.737894,-0.098307,-0.374319,2.020553,-1.973431,-2.216665,-0.432604,-2.601421,-2.818889,-5.790826,-0.289859,-3.669449,-1.284676,-3.080858,-0.339437,-0.649646,0.666542,-1.270637,-0.068255,1.358341,-0.508756,-3.59429,0.376946,-2.202301,-0.910005,-4.937541,0.09595,-3.659505,-1.976924,-5.36808,-0.418944,-4.747964,-3.116705,-5.527497,-1.72737,-5.297984,-1.44858,-3.651451,-1.463917,-4.979437,2.483707,-1.911808,1.477472,-1.42265,-2.492153,-2.930902,-1.791347,-5.381611,-3.584947,-3.832042,-2.425123,-3.853119,-3.143448,-1.68713,-2.081055,-3.207014,-3.200897,-1.055737,-3.247773,-3.393092,-0.797509,-0.740995,0.241217,-3.510592,1.528549,-0.191529,2.313682,-1.376506,-1.150568,0.221541,0.261642,-3.446907,-2.815496,-0.06418,-2.641945,-4.386805,-2.564387,-0.044477,-1.068413,-2.76261,0.038288,0.494686,1.608313,-2.922837,-1.173088,0.312713,-0.027739,0.33826,-246.525253,-435.187622,-1112.137329,1795.401123,-2.452484,0.921125,-0.885941,-1.093166
stress4,L1,F0,136_280,-3.943997,3.719015,1.028822,-3.060267,-1.781236,2.919154,1.608727,-1.641268,1.384571,1.29868,0.141936,-2.335629,-2.477645,-0.442027,-0.285475,-2.144975,-1.898212,2.392771,-0.285761,-1.617458,-0.805106,1.427087,0.470565,0.694668,-1.530059,0.308414,0.925341,2.712695,-0.893806,-0.985282,0.09908,-0.234743,3.855272,-4.746834,-1.011454,-2.648163,-1.482913,-0.773135,1.502569,-0.166571,-0.215212,-0.446305,1.490308,1.992652,0.926979,-0.654369,1.496507,2.645194,0.915171,-0.217574,1.672869,2.093355,0.488192,0.188964,2.799772,-0.625779,1.388832,-1.991997,2.809286,0.596474,1.420754,-1.999709,2.876158,0.545053,-0.53,-5.056576,0.394835,0.258629,0.11388,0.141542,0.169592,3.633047,-1.136697,0.289434,0.736308,-0.591086,3.739943,-4.694716,-3.661392,-1.5331,0.608087,1.198113,-0.320401,1.439349,0.297255,0.939516,0.497575,3.036889,-0.46097,-0.336724,1.241385,2.017356,-1.775993,1.987414,-0.648115,0.694783,3.964686,0.402487,-2.394225,1.686394,0.901137,-0.713796,-0.670273,-3.152313,-2.335316,1.838803,-0.085928,-2.790195,-0.8992,1.518996,0.747188,1.472831,-3.967825,2.458346,2.791467,-0.216797,-5.97766,5.692759,1.174978,-3.288664,-4.246248,4.861103,0.454508,-5.56327,-229.057236,-440.00705,-1513.268677,2498.147949,-2.531735,3.147187,1.557614,1.393754
stress4,L2,F0,136_280,-2.080266,0.734811,-2.431283,-0.323167,0.996143,0.995503,-2.039856,-3.34871,-0.685205,1.238058,-1.997995,0.220881,-1.884688,-0.814025,-0.557307,3.372853,-0.606621,0.780576,-2.519941,-0.27578,3.247347,1.760462,-4.128829,-4.363885,1.954352,0.636643,-1.330655,-1.857401,-0.451658,-0.937393,-1.221276,1.553666,-2.640202,-4.074758,4.254435,6.251884,1.489095,-0.187884,-1.369915,0.323553,3.105449,0.378543,-0.732369,-3.196234,2.82505,0.176126,1.150524,-3.079051,2.769449,0.575185,-0.25331,-0.962267,-0.257317,-1.74011,-1.337479,1.193567,-0.22287,0.734019,-0.124355,0.827027,0.145343,-0.664445,1.266423,0.420995,0.094652,-0.470958,1.156273,0.168473,2.575458,-0.926185,-0.053443,-2.379444,0.433565,-0.477342,0.466367,-0.646206,-1.324848,-2.430193,3.240794,2.708973,2.400815,-0.701361,0.179843,-3.257833,2.976251,0.25838,0.637258,-4.829912,2.671487,0.295347,-2.196375,-5.086951,2.106598,-0.075181,-1.645499,-5.343182,2.552827,-0.233364,0.816727,-1.467938,0.339983,0.078359,4.370636,0.602861,-0.302581,0.679338,-1.74744,-3.072187,1.589005,2.744031,-2.276825,-4.702559,1.229753,1.39427,-3.278608,-4.061924,-0.074663,1.841598,-2.255551,-1.83786,-1.204449,2.031268,-3.437939,-3.602606,-326.212555,-564.679199,-1325.384399,1557.244263,1.321682,2.168317,-2.498411,-2.986953
stress5,L2,F0,136_280,-1.899635,-12.436283,-13.052992,0.498571,0.420259,1.776777,0.639109,-1.309393,2.893515,2.836235,3.180969,0.334698,2.592487,2.721102,2.748401,-2.784931,2.889614,2.983389,1.481968,0.18657,-0.850276,1.904553,-1.054255,-0.757363,1.742936,3.001228,-1.247053,1.270144,2.395133,3.621007,2.583924,-1.200637,4.887723,-1.387112,3.281438,2.88207,1.375126,2.579255,-0.866444,0.732439,0.151187,0.190911,-5.131281,1.857723,-1.747017,-2.387254,-5.925044,0.620333,0.916562,0.176827,-3.723767,3.696437,1.822951,1.41219,-0.687915,2.404772,0.776081,-2.576449,-3.327434,6.284601,-1.785424,-1.697429,-4.624727,2.927269,-2.254646,-3.414012,-3.907563,1.8101,-3.239763,-3.043097,-4.993739,-1.341298,-3.087459,-2.342479,-2.551472,-0.591999,2.157552,-4.021988,1.809556,0.575991,-3.293899,-1.246805,-3.500689,-2.805293,-2.510505,-2.379403,-4.942204,-1.179077,-1.949852,0.580931,-2.215231,-1.850974,-4.727229,-1.48373,-3.172043,-2.073503,-1.675181,-0.582183,-1.792523,-1.037545,-0.714318,-0.736375,0.341619,0.257567,-3.058425,-0.852256,-2.62921,-2.415728,-3.748906,1.392061,-2.778353,-2.733465,-3.888044,0.638325,-2.279572,-2.849496,-3.342594,-0.759619,-1.527481,-0.811925,-2.838181,1.792544,-3.835858,1.671898,-139.405579,-449.975739,-958.986145,1447.002319,-2.348424,1.803034,-1.696998,-1.152687
stress6,L2,F0,136_280,1.358404,-1.959885,2.5116,0.392479,1.342963,-0.216464,2.098789,1.865843,1.216998,2.155454,0.700004,3.081189,0.546783,2.105956,0.205813,2.326301,1.33502,1.347666,0.913921,2.39187,1.715923,-3.402548,1.99313,-0.417279,1.581157,-0.603566,1.467489,-0.010614,1.782624,2.279562,-0.772745,2.259353,-1.953412,6.389948,-0.39665,-0.947999,1.286007,0.848423,0.666456,-0.15253,0.855378,-4.529746,2.15423,-2.752372,0.289433,-5.935729,2.941515,-3.342795,0.761561,-1.906701,2.472675,-2.660489,-0.62596,1.659046,1.933136,-1.239039,-1.0756270000000001,-1.111316,2.779914,-4.833563,-1.218906,-2.252715,2.592633,-4.888746,-0.820634,-4.887119,1.972086,-4.515264,0.797143,-5.63249,1.334475,-3.097061,-0.581316,-1.496496,-0.338202,-1.699744,-2.117947,6.156539,-3.9492950000000002,-1.750018,0.980898,-3.656707,-0.878533,-0.833349,0.926195,-6.602829,1.909861,-3.107335,0.695752,-5.372639,2.235062,-2.673014,0.930425,-6.173654,0.341216,-1.758422,0.290135,-1.829901,-2.496831,1.787986,0.777835,-0.931899,-3.265117,2.401688,0.741063,-4.54405,-2.389683,0.953183,1.470807,-5.096332,1.052314,-2.308678,0.839375,-5.554591,-1.340032,-0.582345,0.01016,-4.019135,-3.60623,1.838951,-0.035833,-3.525959,-0.606814,-1.498921,1105.271606,-553.290588,1562.961182,-444.775574,1.35712,-4.182163,1.448648,0.899339
stress7,L2,F0,136_280,4.034978,-3.643173,-4.001539,-8.560162,4.072251,-4.141812,-8.295539,-3.276736,-6.503243,3.544719,-5.823707,4.645834,5.675139,-3.718543,5.158158,-2.818507,-8.714024,6.425622,-14.231873,6.30594,4.017299,-5.047492,-5.781092,-3.58917,5.714953,-6.010862,-8.172336,-4.080267,-10.023163,5.174423,-4.540761,8.770624,-3.838642,11.294779,4.950709,7.707798,2.534688,-2.940371,-5.465598,-0.97498,2.735291,-4.186171,-5.071758,-4.40493,0.900661,-2.827678,-2.115849,-5.204895,0.89354,-2.328595,-3.538626,-3.377792,0.486824,-1.082508,-0.955911,0.021123,0.076877,-1.728568,0.536966,-2.677724,0.754588,-1.503734,-0.376607,-2.675944,-0.258596,-1.847322,0.762808,-3.268717,0.948206,-3.037279,-0.450578,-4.764456,0.272894,-3.416465,1.598814,-3.639736,-7.379411,3.112323,7.625877,4.622073,1.231512,-3.210685,-1.035407,-5.066359,2.259137,-4.48733,-2.544589,-6.372886,2.359931,-5.326665,-2.43196,-4.937308,4.589974,-6.534874,-3.350158,-7.210128,-16.144796,7.122695,-3.832301,4.004426,3.911582,-3.987686,5.33216,-4.68043,-7.595094,3.701562,-8.184852,-1.686888,3.692484,-7.129691,-0.886267,-5.328799,3.583517,-4.801466,-4.266692,-4.92005,-4.163056,2.133768,-3.761863,-0.187728,3.173901,-5.043518,-2.152023,-7.672669,995.352356,-714.865417,1476.961792,-508.592712,3.739353,-4.802369,-4.192198,-4.109957
stress8,L2,F0,136_280,-3.002828,0.507704,-0.054615,3.23885,-0.981145,-0.114488,0.72795,2.075455,-3.640325,0.600511,1.44854,3.689579,-0.066805,1.15498,1.181197,-2.064243,1.097759,0.681899,2.25402,1.383552,0.257649,-0.934734,0.596535,2.146937,1.136577,-0.286942,-1.076461,3.093908,1.406982,-0.517713,-0.726547,1.517897,3.000924,3.981481,-3.374643,-2.510042,1.234762,1.554451,-1.282468,2.16982,0.746554,0.237901,-1.815999,1.924513,0.293271,-1.187848,-2.422605,3.114938,1.415632,0.789569,-2.365426,2.92215,0.61899,2.53136,-1.264147,0.390254,-0.346473,2.899865,-1.235234,3.221614,-0.146087,2.482823,-2.904799,4.220003,-0.003435,1.92551,-0.306952,2.381229,-0.74591,-1.221166,-2.070741,4.312044,0.471398,-0.154172,-0.73281,1.647908,4.134737,-2.711266,-0.422932,1.003407,0.914317,-1.575655,-0.827556,2.876516,-0.471386,-1.846403,-2.393244,1.690814,0.215279,-1.835509,-0.986337,2.223659,0.389421,-1.39203,0.149459,1.656106,0.509092,-0.668108,1.797413,0.776102,0.111345,1.159176,4.975974,3.189247,0.155204,-0.519893,2.122572,1.310613,-0.117767,-0.493663,-0.053743,3.139893,-1.352561,1.180804,2.073043,1.49003,-0.508024,0.230827,4.994614,-0.89382,-2.461533,0.01199,2.410813,1.853479,986.510437,-694.556091,974.882813,-346.275909,-2.378555,-0.423406,1.265856,0.502211
stress9,L2,F0,136_280,0.307427,-0.955649,2.275755,-0.013157,0.835891,-0.769142,0.459374,-0.961636,1.326347,-1.907304,2.065042,0.882595,0.556558,-0.502708,2.027863,2.100559,1.131961,0.981486,0.39814,-1.350692,-0.152299,-0.855024,1.564154,-3.959872,1.155037,1.280693,2.832546,-3.014662,1.303241,1.662023,1.961616,0.082623,0.350959,-2.382474,7.170074,5.860132,0.681231,0.414698,3.16504,-2.296095,-0.092905,-0.831557,4.811075,-4.207177,-0.405243,-2.115043,4.326587,-2.895712,-0.168199,-1.226607,5.237471,-1.983762,0.478425,-1.388193,5.290325,-0.611463,0.2271,-2.837894,5.29692,-0.031825,0.55258,-2.721929,2.525291,-0.936887,-0.397886,-4.063124,2.954871,1.065282,-1.578424,-2.134074,3.070688,-1.00004,-0.487901,-3.294779,0.381559,1.521858,0.053611,-5.583932,5.549089,9.469666,-1.836619,-2.429235,0.399151,-0.510029,-1.670027,-2.522682,3.79191,-1.766705,-0.828128,-1.15525,3.302135,-4.261718,-1.826615,-2.276015,1.08466,-2.053945,-0.16267,-1.21852,-0.933264,2.291507,-0.861931,-0.863788,-1.020406,4.006386,-1.507969,-0.52683,-1.415029,1.255858,-1.93826,-1.756592,1.526897,-1.516619,-1.183415,-0.35741,-0.17413,-1.424966,-1.729807,-0.865974,-1.406944,3.237815,0.644238,0.813044,1.123845,-0.88576,894.575256,-775.802002,1033.465088,-342.47345,-0.134858,2.65547,-4.239723,-5.109935
stress1,L1,F0,280_400,-9.844411,9.589626,-0.303655,-5.45536,-5.294238,5.006453,-1.659651,-1.444399,5.6115,-12.815326,1.568967,5.223845,6.653393,3.665901,2.479224,7.166289,-0.589054,5.902779,-0.276837,-2.257266,-5.683228,3.105729,-0.865833,-1.429338,-6.129847,5.888775,-0.976281,-1.554876,-2.434539,4.412902,-8.003294,0.653982,9.165071,-5.185184,6.211332,-1.126549,-1.450604,10.573319,-1.4929,0.8036,-6.592428,2.478492,1.546581,-1.072578,-5.344342,2.531154,2.182257,-0.665634,-5.889818,4.582308,0.670822,0.129569,5.595154,7.941307,4.296741,-0.836769,-0.210252,5.407692,7.593488,1.383352,-2.359491,3.998275,3.042359,0.335976,-1.711453,3.021233,1.028265,-0.100623,-5.685961,3.831844,3.181556,0.16577,-0.656828,2.798926,-0.291102,1.580768,11.720561,-12.54037,-3.029475,5.875567,-3.21197,5.332635,-2.340029,1.324854,-6.234833,3.253311,0.779166,-0.543641,-7.293807,2.514566,0.930478,-1.035826,-5.924062,3.846782,1.552969,-1.056899,-6.739771,5.058849,-9.581993,1.346348,-5.493538,18.359682,-6.889588,3.014725,-5.076656,13.680058,-3.916428,0.494893,-5.728718,3.469885,-0.582931,-0.506361,-6.629098,8.769835,-2.914635,-0.642223,2.26722,3.253912,-27.715771,6.696192,-17.00845,2.136064,-7.195951,-3.607234,1296.451538,738.871643,-2691.455078,2037.936035,-6.961879,5.908519,-1.060622,-1.583004
stress1,L2,F0,280_400,4.563962,-1.472387,2.148469,-3.304898,1.621122,-1.651993,2.162673,-1.0880050000000001,4.765471,-0.59356,1.34061,-3.648713,3.121144,-1.116801,-0.101894,-2.853463,2.732217,-1.691228,1.771878,-1.404983,-0.26832,-3.200219,1.89416,-1.520221,2.571295,-1.99645,2.968227,-1.384348,0.911289,-1.337731,0.755671,-2.093774,1.577184,3.256202,-1.8910690000000001,0.431969,0.855102,-1.67115,3.790471,-0.738196,1.488265,-2.511596,2.612155,0.152497,0.117233,-1.9629,3.310376,1.087456,0.258374,-2.388233,4.497849,1.170644,0.797528,-2.085305,2.532485,-0.21181,-0.535917,-1.382209,2.5554,1.055676,-0.517711,-0.471399,3.183932,2.072465,-1.488207,-0.084806,1.284783,2.07651,-1.380939,-3.277053,0.269246,0.974961,-0.979998,-1.188773,0.726165,1.947804,0.709876,4.105452,-2.753689,3.786467,-0.88487,-2.712064,-1.52178,0.543549,-0.209564,-3.808762,0.015072,0.368691,-0.639259,-3.909986,1.061846,0.083173,-1.081286,-2.963166,-1.081516,-0.014446,-0.767722,0.04609,-1.13386,0.940022,-0.69659,1.608077,-2.303944,1.524935,-1.46879,-0.485059,-0.918502,-0.385552,-2.763365,-3.486101,0.541475,0.301142,-1.333637,-2.347859,0.679814,-1.478829,-0.639151,1.492643,-2.139918,0.354296,3.648218,-0.752729,1.979991,-2.751806,1642.753418,1327.956177,-2225.949951,2043.457397,-0.762353,-2.453885,1.548253,-1.406146
stress10,L2,F0,280_400,-7.122085,-0.055269,5.480324,-2.450437,-4.704338,-2.088097,-3.338123,0.293844,-2.756219,-0.339504,-13.48041,12.315585,0.776408,-0.639942,-10.457424,10.257031,-3.325532,-1.96899,-8.339215,5.823432,-5.707006,-3.535359,-2.095896,-0.72295,-4.286788,-0.27406,-5.383477,1.727867,-1.796373,-0.521172,-7.660239,5.159588,9.270492,4.888896,-4.567242,8.488723,-2.016632,1.650945,-5.559779,3.863483,-4.217126,0.858378,-4.84393,0.525119,-1.147165,2.178259,-3.050635,0.859345,-1.712527,3.164448,-2.94998,2.380159,1.367246,3.111226,-2.801272,4.290984,1.343762,6.032061,-2.574303,2.548941,2.0267,7.053067,-0.661695,3.146196,1.03226,4.745475,1.116839,2.786962,-2.898614,2.990966,-1.70595,-1.232855,0.951531,2.237089,1.480561,0.201981,9.469702,5.221884,3.171415,3.548033,-3.005557,0.057331,-0.054884,-3.255351,-3.318931,-0.8017,-2.849141,-1.030872,-5.736117,-1.870997,-3.431615,-1.99949,-4.155531,-1.8311,-0.764351,-4.289782,-1.795344,-2.100151,0.948503,-5.196916,0.154794,-3.052998,2.107959,-6.797045,-4.038233,-2.531504,1.480066,-7.976494,-6.54031,-4.543956,-1.184582,-4.377929,-7.288812,-3.760639,2.414451,-7.646242,-3.024718,-2.945738,5.980682,-13.160186,-8.096596,-0.97041,9.237809,-8.90827,1945.20752,620.76947,-2745.384521,1929.744141,-6.246731,-3.370261,0.465274,-4.012252
stress11,L2,F0,280_400,-1.913874,-1.098353,-0.21503,-12.419253,-5.977847,0.301232,3.730839,-5.92786,-23.015955,-17.06147,-0.966175,-12.937443,-19.348408,-12.999892,-0.637656,-4.725404,-8.033486,-3.065626,1.914819,-4.194991,-0.515397,3.575151,1.122247,-1.356769,-1.974878,0.902928,1.17932,-1.599316,-12.377365,-7.082607,-2.20764,-3.362131,-11.960146,-12.879156,-0.992882,-2.141457,-4.138996,-1.101145,1.698596,-0.725487,1.169601,2.20866,1.286793,-1.35274,-0.227507,2.709618,0.430081,-2.695444,0.274416,1.768175,2.566695,0.090717,-3.872835,-3.247844,0.870265,2.548522,2.291695,2.437213,2.646734,2.949815,2.670539,1.40265,1.279655,3.891843,4.35243,1.796544,2.487055,2.181333,2.187203,2.084613,-1.28695,8.288559,5.718042,3.204006,2.534164,3.017545,5.139679,-3.635841,-0.848364,3.665695,3.570113,3.385237,-1.483578,3.370556,2.101352,3.376188,0.262527,-0.138634,1.586684,3.36504,1.14777,-1.923085,5.664444,2.789164,-2.497244,0.538263,6.570695,8.164049,-2.044997,2.847912,16.048094,11.955225,-2.229853,10.169741,13.503325,9.843286,-0.686887,5.428894,3.298321,4.981078,-1.32977,-0.407804,10.801169,10.3952,-3.816278,3.181787,27.085356,17.063683,1.191727,9.910366,15.843494,-7.87367,-7.178824,-10.216098,1787.112305,851.257019,-2840.095215,1562.502319,2.273488,5.505,0.613749,-0.50808
stress12,L2,F0,280_400,2.28985,0.246313,0.219,0.716049,2.175201,2.998267,2.15329,-0.483605,0.32558,1.743901,2.224107,0.901311,3.232623,1.202035,-0.884988,-1.292929,1.217438,1.952838,1.028745,0.942152,1.094215,1.335204,2.157753,-1.370379,-0.313178,2.295595,2.221677,-1.110244,-0.377528,2.127863,1.470197,2.638215,-6.026492,-2.648228,0.466342,1.357792,-2.063251,1.141987,2.448427,-0.541996,-0.443801,1.042482,1.408205,0.154308,-1.145209,-0.895215,1.57149,-1.500369,-0.928545,0.692439,2.158372,0.408435,-1.784666,-0.126349,0.86341,0.907522,-1.13116,-1.183415,2.380162,1.351371,-1.38446,-2.827214,-0.623418,-0.215924,-1.744839,-3.727537,-1.489275,-0.453279,-0.598148,-3.507195,-0.00696,-2.983678,-0.799471,-4.82276,-1.696348,-0.657499,-2.200197,-2.41666,-1.937532,-0.339971,0.273094,-2.450975,-0.885498,-2.514239,1.798537,-1.412666,0.986337,-1.437115,0.630756,0.665669,1.591825,-0.80066,0.702702,-1.640463,0.255344,-1.646372,-0.018849,-0.619601,0.544386,-1.686984,4.515453,-0.752329,-0.99283,-0.418027,3.050397,0.698994,-0.608748,-1.68788,2.971323,0.743427,0.573642,-2.013968,0.866242,2.154504,0.960099,-2.858451,5.696046,5.323674,0.81051,-2.463889,3.174959,0.287247,0.307272,0.57531,1456.623657,706.097473,-2483.545654,1894.16272,2.742231,1.688296,0.490396,-0.339274
stress13,L2,F0,280_400,-1.40773,1.293628,-1.811591,-1.969873,-0.22901,3.456936,1.623285,0.987475,-1.639717,2.211645,-0.171181,-0.163405,-0.136852,-1.1457,-4.925273,-0.852507,1.304522,1.504376,1.623901,0.552883,-1.15631,0.099577,2.686746,-1.254223,0.239014,-0.526358,3.897983,-1.652139,2.227875,1.011117,0.55955,-1.161708,0.505961,-1.424949,-4.967608,0.250721,1.454877,-0.140612,2.442797,-1.141425,-0.155562,-1.720481,3.228716,-2.118421,-1.031143,-1.503672,2.162929,-2.364935,1.711176,-1.001543,3.509778,-1.86359,1.356876,0.155731,2.086352,-0.935406,0.406559,-2.374536,1.057675,-1.224164,-0.545839,-4.138133,-0.590311,-1.009306,-1.201674,-3.472346,-0.591671,-1.397458,-2.031186,-2.764197,0.541151,-2.184007,-2.494311,-2.035399,-0.870142,0.782186,-0.202291,-0.717881,-2.735841,1.473501,-2.721803,-3.024838,0.65448,-1.056174,-2.345841,-1.408763,2.067603,-2.679525,-0.820758,-0.786119,2.407419,-2.740851,-1.818963,-1.515281,0.165309,-3.103449,-0.879897,0.302244,0.539141,-0.79486,-1.127903,1.852247,-1.784409,0.380174,-0.639047,1.313948,3.586994,-2.237924,-1.333559,-0.733614,4.051127,-2.945994,1.525716,1.938598,2.544495,-3.073183,0.648902,1.623077,6.505127,-2.128114,-0.451601,1.061568,-0.483489,0.33483,1755.118652,767.380371,-2503.029053,1773.619385,-0.101223,0.714277,2.567816,-0.574741
stress14,L2,F0,280_400,-5.61587,3.214433,-3.569583,4.904559,-5.273461,3.793801,-2.66653,6.648708,-12.559417,5.581354,-2.67827,5.694102,-8.378009,2.12275,-0.785449,0.396899,-4.787053,3.423775,-2.711318,4.727546,-2.45655,2.471378,-0.519672,8.820837,-3.509203,1.183843,0.183747,3.871778,-6.255948,1.76445,-0.40353,1.884986,-0.300442,-3.967793,2.988909,-9.196454,-6.692537,-1.212001,-1.241786,1.130729,-3.463591,-3.370651,2.425663,4.080976,-3.258763,-5.388364,3.704756,0.793517,-5.003557,-4.314019,2.274599,1.732136,-4.122142,-3.316617,0.018502,-0.976396,-4.784899,-6.05591,1.331203,-1.302175,-4.248163,-7.521055,1.807359,-1.963586,-3.781207,-8.680038,-0.048817,-2.984063,-2.818174,-4.510502,2.429625,-2.02353,-1.150717,-3.682428,1.513778,-3.133851,4.549423,-6.71741,5.268052,-10.548016,-2.886402,-1.667531,-0.960609,-3.005441,-3.498164,-3.783655,2.660102,1.404643,-1.732789,-0.796012,3.186902,5.89276,-1.592722,-1.04553,2.253422,1.282105,1.736526,-2.605989,0.560828,-0.8851,6.591271,-2.814015,3.239636,-3.031335,3.073501,0.54258,0.536022,0.653306,-1.550635,1.881539,0.134227,5.773147,1.682597,2.365698,-1.443775,3.485665,7.351169,-0.565175,0.843489,-0.133643,-1.064809,3.430175,-4.865085,2.701611,1932.530029,576.094666,-2487.884277,1528.278687,-1.416327,3.561735,-2.752321,6.58149
stress15,L2,F0,280_400,-1.14171,1.179139,-6.151902,2.951382,1.772805,0.786592,-2.604607,3.631428,1.329217,4.654524,-1.304921,5.342659,1.766846,5.306844,1.540612,3.8799,1.718459,3.217234,-1.431596,3.816746,0.831028,-1.218362,-4.050714,1.189162,-1.243213,-0.029086,-3.101975,3.140914,-0.34872,3.460133,-2.034833,2.501561,-1.246923,2.721267,5.163081,-0.372233,-2.116125,-0.327067,-1.793634,1.582605,-3.081692,-4.223053,-4.28934,2.2434,-4.337539,-6.386942,-3.868458,1.297323,-2.340055,-3.802031,-1.929942,1.986143,-2.627813,-1.753692,-0.782672,0.126306,-3.975089,-4.362619,1.458424,0.747092,-3.586141,-5.367257,2.382039,0.947714,-2.935753,-6.256089,1.747845,1.004376,-3.839738,-7.044683,-1.572378,0.718237,-1.643758,-4.060325,-0.185969,1.080698,-2.507886,1.122731,11.328755,-1.948876,-2.335875,-4.362375,-2.644136,-1.085832,-3.010578,-6.311007,-4.306242,0.901084,-2.111635,-5.50559,-5.643021,0.44612,-2.299345,-3.456144,-3.209168,-0.570072,-1.698665,-0.203229,-2.14245,-1.96337,0.065217,1.822118,-0.958014,-2.171942,-1.06786,-0.928389,-2.622742,-2.933965,-0.916224,-2.982469,-3.111483,-0.137213,-0.599703,-2.404205,-2.717416,-0.412868,0.93522400000000006,0.446803,-2.852111,-2.454635,-2.182709,-3.318312,-6.856504,7.039318,1831.256592,776.262634,-2560.141113,1701.461914,1.251603,-1.281333,-5.497279,0.773703
stress16,L2,F0,280_400,-61.082016,-39.67268,-15.301484,-13.596467,-15.107074,-9.814672,-5.089807,-2.690962,-13.228689,-8.389767,-4.539709,0.320448,0.46048,-0.01807,-0.780476,3.432561,-5.051157,-4.29171,-2.867574,1.538529,-2.002069,-4.517059,-2.184517,0.306561,3.496372,-1.849171,-2.367228,0.652025,1.698323,-0.634376,0.432613,1.887641,13.498272,10.037495,5.18522,1.054934,3.764116,-0.717256,-2.243815,0.775478,5.097665,-0.74731,-0.033387,-1.570038,6.106396,-0.994635,-0.278383,-1.683528,6.067217,-2.134874,-1.484204,-1.04465,4.271648,-0.282995,-0.863707,-0.213449,5.791954,-2.086424,-0.594707,-3.959726,5.390006,-1.18266,-0.012994,-5.985516,3.621128,-0.22007,-2.496242,-9.081961,4.274565,-1.7001,0.134678,-3.696507,2.799037,1.078665,0.353298,-4.910801,13.182173,11.386943,6.206241,-0.794984,2.780042,-0.180039,0.818652,-1.218577,4.510603,-1.263324,-0.315193,-1.463148,2.92485,-1.723254,-0.301107,-0.783706,1.937381,-0.290655,0.673405,0.402132,2.266294,4.018997,1.699889,1.387967,2.92807,3.50838,0.82541,4.124317,-0.82981799999999994,-0.047573,-0.122656,2.567656,-1.111878,-3.599012,-1.856079,-0.833009,-10.298223,-7.22605,-2.600932,-0.036209,-6.0688,-1.435565,-2.441358,3.27101,-43.781269,-29.110418,-12.551772,-5.903053,1794.841797,780.508545,-2528.951904,1766.304688,-8.893485,-7.141484,-3.797155,-0.08665
stress17,L2,F0,280_400,-5.361872,-0.956159,-3.375841,-4.911211,-4.79514,-2.1874,-4.85322,-3.724721,-1.827549,0.460526,-6.039755,-4.344848,0.740881,1.90951,-0.480098,-0.980496,-2.778092,-0.773771,-4.8028130000000004,-2.46061,-5.167529,-3.480009,-3.649456,-3.150999,-2.948354,-4.278872,-2.240165,-1.54474,-0.875343,0.689918,-2.142516,-0.357965,8.121943,4.834997,2.532431,4.13702,-0.882376,-1.901022,-1.882074,-0.358419,-2.781656,-5.108661,-1.937575,-3.373734,-3.834588,-5.616093,0.345961,-3.88619,-1.625854,-5.563019,0.95985,-1.397061,0.612623,-0.513263,0.045847,0.57942,-0.890298,-3.864785,3.21863,-1.212193,-0.856952,-3.893034,3.200985,-1.225301,-0.14685,-3.357681,3.311494,-1.571089,-0.626333,-5.502995,1.75635,1.76196,1.05912,-2.482291,2.653399,0.463189,9.052547,4.014576,5.9890930000000004,6.403272,-1.624363,-3.04537,1.41404,0.214734,-4.175393,-5.969032,-0.972359,-3.718824,-4.707056,-5.58463,-3.378053,-4.371759,-3.915455,-4.598252,-1.194888,-2.022051,-1.301392,0.40383,1.597215,1.912395,-0.150472,2.999163,7.077472,2.846996,-3.779604,-2.456865,1.408513,-1.303613,-7.33954,-4.314867,-0.406128,-5.437977,-6.043473,-2.37551,-0.704167,-2.264452,-2.358062,-0.061013,6.890853,0.775602,-5.412362,0.015698,1.527467,-1.905692,2074.688232,830.646545,-2503.483398,1641.062622,-5.724831,-2.949858,-2.840508,-3.513432
stress18,L2,F0,280_400,0.264217,1.27124,0.187331,0.820424,-0.155437,-1.372451,0.030318,-1.614266,1.18048,2.664189,-0.38708,0.946121,1.842989,3.034489,0.220897,1.271262,1.818714,1.524958,0.121318,1.09659,2.4364,-1.23421,1.426117,-1.689164,2.531504,-1.135148,1.059532,-1.018818,2.328279,1.977368,0.669091,1.419851,-0.173102,3.714359,0.315766,5.327035,1.684842,-0.168803,0.851663,-0.721334,2.894305,-2.229846,1.332425,-2.678557,3.603479,-2.254838,1.347743,-2.773036,3.925407,-0.938095,0.285614,-2.340042,2.984639,1.265222,2.963396,1.709888,3.57195,1.178515,0.987089,-0.432446,3.401625,-0.277034,0.085052,-0.006822,1.702065,-1.73184,0.631267,-0.686017,3.216747,-3.636711,-0.304659,-3.188224,-0.721082,-2.503384,0.948175,-0.887562,-2.682961,0.276426,-0.547149,2.806586,0.837569,-3.650803,-0.466822,-2.303639,2.568671,-4.505185,-0.701635,-2.898894,3.357394,-1.953885,1.869735,-2.531946,1.844564,-4.543242,-0.218238,-3.723289,1.14576,-0.948416,-1.620364,-4.260039,-1.042973,1.700545,-0.161547,-2.198578,-0.389751,-1.537092,0.096978,-3.823701,0.232541,-1.608241,0.969298,-5.767159,0.438959,-0.363776,0.170153,-2.893237,-1.200658,0.685074,-1.987484,-4.957181,-1.061861,1.161826,-0.323231,-2.662288,1670.015747,641.838684,-2533.855957,1698.758301,0.952021,-1.330261,0.077127,-2.711206
stress19,L2,F0,280_400,-0.446888,1.780362,-1.173416,1.536177,-0.074695,-0.55423,-1.438589,2.850298,-0.679071,1.082809,-1.537494,2.955096,1.002509,0.850261,-0.677948,0.704342,-0.379285,0.560917,-0.19588,2.443198,-0.576722,-0.916269,-0.166681,3.103207,-0.116525,0.426284,0.92118,1.923194,0.494047,0.222087,0.854525,1.0956649999999999,0.57447,2.215814,1.55204,-2.860863,0.256543,0.71661,2.5194,0.834123,-0.626622,-1.916564,2.003387,-0.641417,0.108717,-3.053881,1.699364,-2.993499,0.600846,-0.028541,3.711193,-1.854876,-1.048937,0.927304,3.568432,-0.438158,0.733629,-0.439314,3.614302,-1.074467,-0.925732,-0.326157,2.879833,-3.198198,-0.11457,-0.97299,2.812398,-4.087049,-1.050992,-2.480624,2.616404,-4.434859,-0.715031,-1.289332,2.450551,-4.455221,0.446827,2.077264,2.141693,-4.733388,-1.28375,-2.617396,1.104115,-3.351011,-0.534575,-4.041914,2.140528,-2.092569,-0.486197,-2.75161,1.132201,0.699025,-0.177715,-2.544214,1.223718,-0.932185,0.076077,-2.304517,1.337715,-1.819144,1.524253,-1.4033,0.841515,-2.316776,-0.254676,-1.607756,0.442904,0.058738,-1.429718,-1.463698,0.631207,1.012654,-1.112402,-0.89526,0.528215,1.497325,-0.331208,-1.261721,1.252392,0.531424,-0.465051,1.290486,-1.23607,0.15245,-751.524658,1012.03125,-2553.551758,1554.705078,-0.34043,-1.431025,-1.231242,2.531417
stress2,L1,F0,280_400,4.804551,0.966233,1.899693,0.39648,4.6541,0.675539,1.677331,1.741794,2.683342,1.403537,0.187752,1.772862,1.322119,0.517986,-1.724112,0.488455,2.523787,0.509425,-0.353994,0.973842,3.565372,0.003119,2.523215,-0.155852,0.826809,0.684677,-0.678109,-0.590225,0.828131,-0.157219,-1.69336,-0.356584,-5.14968,-0.003838,-4.181785,0.113848,-1.285364,1.202459,-1.861052,-1.264536,0.47266,-6.41502,-0.594388,-2.553571,-1.50427,-0.333921,-1.826986,-1.638349,-1.876546,0.579144,-2.039592,-1.479897,0.399431,-0.703207,-3.843527,-0.749643,-2.549103,0.935729,-2.453559,-1.159279,-2.85817,0.38745,-3.195501,-3.231139,-3.67059,0.308839,-3.455703,-2.292872,-2.864218,0.14763,-1.554626,-0.680182,-3.284068,0.017504,-0.705411,-1.71624,-4.947013,1.296969,-3.030149,-3.6374050000000002,-2.969698,-1.126823,-0.399931,-1.157973,-1.732656,-0.113895,0.139525,-0.290152,0.729738,-0.839868,0.229857,-0.880088,-0.21557,-0.631741,0.719919,-0.304671,-1.532441,-1.731907,0.183286,-2.026098,1.617564,0.231671,0.029446,0.786965,0.404082,-1.242702,0.489711,0.245119,2.477345,-0.933883,1.627651,1.012663,1.867005,1.333047,1.72587,0.449948,3.881852,-0.765336,1.673337,1.144994,4.460541,1.340471,2.043601,0.335943,1176.495361,831.423157,-2768.743652,1946.115234,3.365565,-0.431043,2.403979,1.174519
stress2,L2,F0,280_400,-3.849035,-0.508766,1.071053,0.479015,-4.022954,-3.877737,-2.761947,-1.308896,-4.814837,1.564865,-0.145187,-3.467912,-5.099715,1.122544,2.15282,-0.021314,-4.189459,-1.637819,-2.238629,-3.089551,-3.192605,-3.996483,-2.037291,-3.20975,-1.639616,-2.560566,-2.1507,-4.226973,-4.224082,-1.702552,0.307188,-2.031587,5.232476,5.219585,3.863306,5.414633,0.033134,-1.494667,-1.674611,-1.084925,2.025445,-4.458772,-0.868892,-5.298722,5.620785,-3.813689,-0.460672,-4.840727,3.255586,-3.126129,0.635232,-1.388734,3.490317,1.232103,0.523462,2.939909,8.767908,2.121887,2.719045,3.084742,9.346308,2.277412,3.980946,2.323745,10.334876,2.228042,3.303057,1.502187,5.50368,-2.368927,-0.179873,-3.917464,5.270485,2.11791,3.895925,0.914756,6.942228,6.082229,8.697659,4.561399,0.583231,-1.745541,0.568066,-3.873737,1.73159,-4.145925,-1.212252,-6.261791,-0.796915,-3.910327,-0.036931,-7.116574,-2.670846,-3.647134,-0.974706,-7.349094,-1.62551,-1.103185,2.710377,-2.401271,-2.78995,-0.167981,1.70543,-1.47826,-5.328237,-1.845453,-1.031139,-7.831305,-4.84022,-3.479232,-2.177325,-6.969404,-2.915434,-2.541028,-4.292033,-7.429328,-4.359763,-4.654006,0.226175,-6.48878,-3.675153,0.072981,1.361811,-4.081698,1221.513428,1078.508545,-2513.942871,2131.151367,-4.058235,-3.76727,-4.186987,-3.325345
stress20,L2,F0,280_400,-25.213737,-8.620675,-6.274289,-0.31795,-9.254963,-2.76191,-3.615143,0.3583,-4.14973,-4.560983,-2.850347,-2.211843,2.786183,-2.021938,-0.224527,-1.097817,-3.689475,-2.177419,-1.805413,-0.194835,-6.56555,0.37732,-2.127504,-0.953851,-5.640688,1.154189,-1.09784,-0.059159,-1.207542,-0.059668,-0.17084,-1.238256,13.674192,0.569726,5.297614,2.43082,-1.885665,1.274668,1.091465,-0.10607,-5.818305,1.784998,-1.169718,-0.174422,-4.403811,1.894103,-1.069569,-0.959254,-2.832886,2.483012,1.714135,-0.66235,1.481479,0.225164,3.578449,0.424196,0.51561,0.252844,4.069158,-1.957383,1.347196,0.034559,2.63507,-1.670354,2.024291,0.380657,1.612696,-1.470268,-1.907433,1.778234,-1.492361,-1.122364,1.355357,-0.460034,0.481477,-0.834155,13.659413,0.966254,4.174393,-0.078108,-0.786885,1.460696,-1.598379,-1.014633,-5.72744,1.594831,-2.410484,-1.202114,-6.769472,1.738377,-2.868817,-0.998613,-3.858058,1.1457870000000001,-2.138891,-1.30206,1.153906,1.479088,-0.939883,-1.576374,5.227884,1.798506,-0.011013,-0.577849,-2.851672,-0.064238,-2.876035,-2.272514,-6.430733,-0.031684,-2.521463,-1.180611,-8.103707,-0.361062,-3.295913,-1.438355,-3.488814,1.821603,-3.308639,-0.713998,-22.001759,-4.875637,-5.951509,1.14086,1724.233276,603.346802,-2749.192627,1844.574585,-9.1112,-0.511994,-3.157335,-0.784237
stress21,L2,F0,280_400,0.75625,-0.585097,-0.254208,-1.436494,-1.515584,-1.178873,0.599199,-1.243662,2.333483,1.203662,1.094545,-2.232226,2.28409,0.970536,-1.376593,-0.013252,-9.063065,-0.192052,1.698962,-1.361431,-0.394073,-0.792572,0.173243,-1.110298,-0.562108,0.369891,-0.200355,-0.821407,-2.587504,0.015222,-0.878678,-0.841776,1.678693,1.737976,-1.433984,1.948625,-0.835363,-0.822586,-1.652329,-1.287787,-0.897118,-0.74955,-2.01377,-0.983027,-0.956291,-0.465208,-2.388736,0.243128,-0.671271,-0.262753,-1.585043,-0.250237,0.312558,0.031393,-1.16157,0.490679,-0.191609,1.185255,-1.021749,1.390875,0.211171,1.869313,-0.872981,2.17663,-0.821931,2.548069,-1.766759,1.315185,-1.810994,-0.541268,-2.317291,0.857457,-1.554521,1.482226,-0.93291,0.069837,2.030187,3.524389,-0.120924,1.394106,-2.535687,-1.183915,-1.14104,-0.693125,-0.947385,-1.477673,-1.765604,-0.318261,-1.810081,-1.373584,0.188288,-1.245004,-2.47339,-1.41248,-0.515617,-0.839866,-2.39171,0.197423,0.37705,-0.689901,0.948755,1.467975,0.406212,-0.479715,-8.510015,-1.747067,0.681383,-1.550735,-3.264405,-1.810769,-0.134504,-1.851671,-4.916289,-3.296178,0.661882,-0.859024,0.05998,0.402773,2.972603,0.506372,-0.621551,-2.818991,1.894919,-1.204569,2002.491699,1018.564087,-2577.895508,1610.404785,-1.236294,-1.754121,0.518303,-1.114244
stress22,L2,F0,280_400,0.542776,0.918851,-0.168003,-5.502712,-1.940933,-0.493037,-2.888829,-3.944034,-0.094876,-2.049676,-0.138875,-1.13963,1.697495,-3.033958,2.13799,0.886523,-1.583944,-0.882233,-1.64226,-0.88868,-3.756477,0.312488,-5.004566,-4.294029,-2.717786,1.671452,-2.919847,-0.503518,0.517464,-2.341505,0.506049,0.489421,2.303191,-1.17251,6.386706,5.752281,-1.468862,-0.727208,-0.619039,-0.780424,-5.019881,2.803746,-3.924048,-1.567959,-5.716389,3.217787,-3.249174,-1.75395,-3.41002,1.420508,-2.460795,0.800753,-0.75839,-1.401699,0.454353,0.937582,-3.995708,1.218162,-1.802642,-0.877736,-4.396167,2.088582,-2.325377,-0.730071,-4.649113,1.385984,-2.190766,-1.219343,-4.71486,2.416092,-3.512684,-2.176071,-1.953765,0.361514,-0.298907,-1.119927,2.017562,1.692474,7.258076,5.678897,-2.023276,2.046229,-2.512765,-2.145031,-5.406823,2.79943,-4.544853,-2.523937,-5.602004,1.799941,-4.740867,-3.692828,-3.124088,2.141701,-5.569967,-3.597815,0.408908,1.590485,0.853464,-1.717292,0.892028,0.273489,2.84812,0.101789,-1.565857,1.699976,-2.506854,-3.568707,-4.332336,1.341438,-5.524797,-5.683924,-1.869809,1.355681,-4.1892,-4.927493,0.06947,1.298392,0.100425,-1.700472,-0.055638,4.592062,-2.407177,-3.438523,1692.540527,683.623352,-2621.179932,1607.123535,-1.440251,-0.173321,-4.548261,-3.810393
stress23,L2,F0,280_400,3.864118,14.24865,-0.276808,1.61046,3.317061,9.855572,-0.928858,-0.140299,2.333767,21.781052,-1.584058,3.791577,2.982761,13.365859,-1.911889,3.772434,5.35052,9.411339,-2.852191,1.592953,4.039762,4.166694,-2.101811,-2.061375,3.545862,3.005675,-0.88398,-0.336889,3.638603,7.471422,-2.220913,-1.807201,-11.520257,0.100746,4.982583,3.417868,4.745198,4.823292,-3.956681,3.295353,1.320477,-0.255918,-0.626154,-2.111325,3.57558,-1.908285,0.998281,-2.308728,3.079423,-0.996481,0.993811,-1.290701,5.133124,-1.176192,2.647536,1.311087,3.151815,-4.399226,3.881948,-3.076496,3.346848,-4.06963,2.263495,-2.817653,3.230688,-4.73307,2.414815,-3.858558,2.313801,-2.781434,0.887632,-3.484363,-0.460953,-4.771679,7.708689,-1.434997,-3.771624,-8.699222,1.553848,0.962662,4.051534,-4.845655,-0.645828,-2.880691,3.067001,-0.988945,-1.501063,-2.980045,4.503083,-0.365559,-1.993512,-1.225129,2.845175,-2.840345,-0.500967,-2.748374,-3.620516,-5.803474,-0.194347,-6.015646,3.373237,-14.386101,-5.047762,0.276691,2.373253,-7.520761,2.718736,3.50245,3.569533,-0.052473,-1.642388,-2.408446,3.168049,0.473893,-3.680225,-2.09396,-2.013623,-19.566607,-3.846087,-3.293865,2.29733,1.64346,1.495314,-1.209616,1664.01355,812.308044,-2449.805176,1607.885986,5.097294,2.866158,-2.178809,-1.460177
stress24,L2,F0,280_400,1.879168,4.757955,-8.172513,-4.175117,1.48727,2.745019,-1.164344,-3.322427,4.092814,9.085433,-1.133771,-5.467535,2.276105,3.76593,3.00531,-2.512651,1.923779,4.642419,-0.137919,-3.232456,-1.57087,-2.630793,-2.628646,-0.618591,-0.256144,-1.056334,-2.955633,1.393021,-0.484931,1.998739,1.398024,-1.199397,7.210193,5.519287,4.477358,1.76028,-0.154471,-1.733935,0.786024,1.706737,-0.585447,-3.196047,-4.072908,3.584959,-1.060269,-4.327761,-4.969267,2.638014,-0.352171,-2.629358,-1.006253,2.516428,0.10176,-1.453961,3.170055,2.190079,-1.153235,-3.435472,0.650037,3.183378,-1.186985,-3.185406,-0.958381,3.723741,-2.588053,-3.935961,-2.328409,4.07297,-2.898735,-4.79048,-4.906306,3.390713,-3.925928,-4.047884,-2.686907,3.768117,-2.515038,2.816921,0.422645,3.868637,-3.108644,-4.52493,-4.195774,0.914101,-1.676741,-4.274346,-5.933206,1.146137,-2.24075,-4.102723,-5.419611,2.323847,-1.596033,-4.160641,-4.728162,0.160651,-4.518222,-2.560921,-3.99929,-1.329952,-1.759067,1.222461,-0.064561,-0.731515,-1.637848,-2.637663,-3.081619,-1.888001,-2.114774,-3.789724,-4.112193,0.086136,-0.443136,-3.745733,-4.121617,0.406727,-0.836473,0.054182,0.170505,-1.722828,-1.394198,1.836382,-8.16807,-3.866535,1697.965698,878.071655,-2619.431885,1926.152954,-1.565051,-2.778734,-1.633334,-1.876305
stress25,L2,F0,280_400,-1.33139,-1.861898,-3.533131,-3.608604,0.001133,-1.951453,-1.495321,-2.025465,-0.629488,-1.064099,0.474383,-0.17345,0.444209,-0.963229,0.362864,2.019036,0.430557,0.085134,-1.36983,-1.07607,-0.547524,-0.812948,-2.550819,-4.234145,0.365296,0.066954,-2.387035,-1.651398,0.235776,0.481815,-0.58875,2.819994,1.567576,3.952141,2.373039,7.496192,1.999581,2.418188,-0.807086,0.876022,-0.412165,-0.006448,-2.970252,-1.633717,-0.598508,-1.355309,-3.599826,-1.522845,2.065859,1.98109,-1.003004,0.234008,2.40045,2.130624,1.316071,3.193349,0.154552,0.44897,0.184057,1.542135,-0.029864,-0.583878,-0.610688,0.536182,-2.375545,-1.11924,-1.488522,0.231757,-1.860084,-1.42618,-3.225104,-0.553082,-3.523895,-0.371453,-1.756744,-0.181005,-2.161313,2.705198,2.6544,5.225731,-2.279346,-0.481668,-2.46482,-1.047416,-0.519889,-2.037765,-4.260728,-3.0973,-0.86291,-1.030909,-3.636145,-4.26407,-1.594185,-0.4257,-2.744981,-2.980254,-1.555037,-0.726749,-0.978863,-1.578728,-2.466616,-0.221405,0.515544,-2.578557,-1.867598,-0.548173,-0.802714,-3.331048,-1.510719,-1.746879,-1.585136,-4.434142,-0.542043,-2.954128,-1.743829,-5.542375,-2.286859,-0.883296,-0.201322,-4.220141,-1.035853,-2.699365,-4.107608,-6.257746,1957.537354,567.862244,-2670.548096,1774.697388,0.197912,-2.219113,-1.675812,-4.240641
stress26,L2,F0,280_400,-0.620941,-13.03474,11.913369,-18.229118,2.263928,-4.406785,2.866405,-2.237181,1.441309,-0.80576,1.426654,-6.113433,-0.422229,1.044472,-1.3132490000000001,-1.968027,0.591337,-1.471839,-0.166073,-1.112051,2.936862,-3.898862,2.744616,-0.183131,2.619226,-1.016813,2.814396,0.485261,-0.052283,0.429188,-2.081267,1.586791,-3.819363,8.001792,-2.516169,0.836942,0.703426,0.421036,-0.423093,-0.387169,1.287622,-1.432459,2.796622,0.734852,-0.523953,-0.916542,3.212918,-1.060928,0.543721,-0.032201,0.524494,-1.019747,-1.361988,1.821925,-0.368292,0.502227,-3.119629,1.396909,0.303254,0.499779,-6.032493,-0.375695,3.130159,0.765491,-3.279245,1.109655,0.379889,-1.417486,-1.350884,-2.2253,1.452442,-1.113135,-1.968373,0.878998,0.414187,-0.464006,-4.608429,6.954778,-2.764537,0.184635,0.147337,-1.93987,-0.031789,-0.964681,1.764605,-3.43684,1.845556,-0.388578,1.590454,-2.595041,3.814313,-0.948966,0.459068,-4.082691,2.321539,0.16146,0.835392,0.641553,0.119251,0.761467,3.309885,0.203004,-0.494022,3.287903,3.314526,-4.51454,1.478306,2.0109,1.82298,-4.166328,1.77057,0.285785,3.800658,-5.678913,1.871706,0.872963,5.584487,-4.440059,1.886251,1.869953,6.503894,-11.622316,8.535941,-9.06057,1785.474609,802.707275,-2649.285889,1788.320313,2.809262,-4.985523,1.760235,-0.340525
stress27,L2,F0,280_400,4.414595,-10.705408,-31.890924,3.090104,7.29595,-4.36015,3.379581,14.082915,19.186447,-0.04135,23.117023,39.014305,11.926086,1.163078,20.881472,22.115391,10.415345,5.600132,14.519401,19.078215,3.682975,-1.659673,-0.387794,2.504288,3.245336,-3.121563,3.004566,7.001506,5.738922,2.98453,11.320772,11.676471,0.370776,0.729233,14.971666,7.824348,1.661772,-1.400628,4.00011,6.080728,0.700004,-3.189614,-0.158422,0.469391,-2.285777,-4.413855,-2.075331,-1.920874,0.394728,-3.713727,1.148897,2.621518,0.469746,-2.473029,3.965479,4.008203,-1.156923,-3.953696,2.63265,0.98574,-3.594672,-3.572936,2.628776,0.320444,-4.60132,-3.125664,0.993989,-1.970998,-4.225664,-2.150471,-2.550424,-3.410624,-4.169659,-2.336302,-1.466589,-4.434251,-5.06998,0.029062,5.077633,-3.781358,-4.730116,-1.928723,-4.858692,-6.042973,-3.386551,-2.414839,-4.195237,-5.57998,-0.152507,-1.501319,-3.602318,-4.594495,-4.090519,-1.167434,-7.397584,-8.591337,-5.514421,-0.716101,-7.092469,-10.522779,-8.323053,-1.643478,-10.600955,-18.488529,-7.048578,-1.606612,-10.185361,-16.375221,-1.015903,0.213513,-6.223898,-6.465937,-3.538582,-0.990072,-13.350678,-10.646934,-12.643113,-2.506347,-21.413134,-27.737892,0.375053,-7.049221,-29.299835,-0.308783,2460.865723,879.610657,-2493.260254,1530.956299,1.566404,-0.252765,-6.6831,-1.347664
stress3,L1,F0,280_400,-13.120096,-2.653916,-19.010983,-39.691402,-7.603031,-0.6986,-6.475981,-16.333307,-4.577302,-4.407814,-8.179995,-23.946335,1.583446,-1.414627,-0.496147,-7.33993,-3.66536,-1.032224,-2.892375,-11.4179,-5.94302,0.418886,-1.68328,-8.146351,-4.149522,2.245277,-0.452801,-4.840763,-0.451222,-0.610432,0.053403,-4.438418,12.260722,0.97472,5.578368,13.409585,-2.316528,1.658986,0.521811,-1.847422,-3.766957,3.054482,-0.802092,-1.093406,-2.607121,3.741209,-1.779024,0.622879,-2.842166,2.94355,0.564604,0.719071,2.62666,2.302623,2.437502,2.952765,3.124841,3.555089,-1.017457,5.973399,4.074836,2.938452,-1.053646,5.481623,5.043191,5.507806,-1.362332,6.108803,-2.840418,2.861823,-2.409559,1.69833,-0.166457,-0.051352,-1.867918,4.783063,7.161067,0.439227,5.500188,18.237507,-3.008606,0.218749,-2.421496,1.174445,-3.309548,2.420887,-2.393828,0.03928,-4.270087,0.733936,-1.692426,-2.134324,-2.794505,1.060811,-1.565189,-0.309639,-0.436924,-2.0277250000000002,-0.458638,4.796876,3.978723,0.187196,4.025854,9.557289,-1.380365,0.486553,0.343568,0.862655,-3.925584,0.627058,-0.985831,-4.120936,-5.074401,0.586935,-2.383092,-6.398289,1.253232,1.632143,3.167177,8.931604,-12.080953,-1.839571,-14.021346,-29.632547,1091.411743,1444.329468,-2342.248779,1943.433838,-6.473929,-0.471315,-3.692853,-10.549028
stress3,L2,F0,280_400,-1.087385,0.946908,-0.240204,2.100848,1.360873,0.64572,-0.574271,-0.966453,1.069754,2.147642,1.833501,-0.97929,1.37352,2.047156,1.79309,0.762646,1.095645,0.98779,-0.906167,0.785772,0.570069,-1.788605,-0.62589,-1.345911,0.034306,-1.932519,-0.601975,-0.597719,1.402605,1.748443,0.629391,0.374576,-0.079876,2.120966,2.328525,4.952059,0.464337,-0.799067,-0.329177,0.621266,0.595008,-3.748393,0.259755,-2.706305,-0.655002,-7.630263,0.169753,-2.348653,0.652535,-4.265752,0.13794,-0.451041,0.827378,-1.295614,0.742255,1.458869,1.654149,-5.416183,-0.226639,-1.050462,1.167179,-7.086845,-1.06202,-1.707526,-0.237834,-7.860759,-0.736276,-3.511287,-1.047259,-6.781876,-1.351624,-5.240522,0.130432,-4.519789,-1.8698379999999999,-3.255688,-1.032377,0.732432,1.575984,0.649968,-0.714619,-3.048904,-2.011223,-4.93063,-0.783785,-4.794899,-1.577407,-3.577985,0.008759,-3.349443,-1.159175,-3.029847,-0.353579,-1.958843,-2.763298,-3.50868,-0.979179,-0.472892,-1.534733,-2.528319,-0.125597,1.055144,1.891558,0.513726,0.619733,0.100949,-1.024603,-3.084608,1.005595,-1.872731,-2.741065,-4.467621,-0.322757,-1.359384,-1.941072,-3.029425,-0.043641,0.904075,0.304356,-2.343851,-0.601179,-0.118747,-1.402633,1.39048,1193.713989,1046.42395,-2673.928711,2159.199707,0.370751,-0.951133,-1.301503,-1.867342
stress4,L1,F0,280_400,-3.176161,3.133546,3.317945,-2.620946,-1.277173,3.01729,3.226288,-0.245193,4.561743,0.456256,3.755775,-1.348299,0.670672,-0.550626,1.998127,-1.967273,-0.368266,2.982157,1.362087,-0.550826,0.055436,2.437981,0.216889,2.133655,-0.537659,2.597028,0.628301,3.523686,1.428757,-1.703933,2.34328,0.155755,2.84459,-5.661846,0.579456,-4.160134,-0.170844,-0.384694,2.002375,0.78152,-0.347983,1.59137,0.066213,2.902277,0.417459,1.204768,-0.547299,2.290221,0.324664,1.191309,0.814065,1.983869,-0.150921,-0.015167,2.49605,-2.096563,1.15726,-1.744241,1.348249,-1.240337,1.100978,-1.69842,1.389841,-1.331178,-0.328716,-3.588771,-1.025571,-3.301536,-1.097945,1.657326,-2.254581,2.016533,-3.451524,2.039825,0.66958,-4.583924,2.791726,-5.494957,-3.705802,-5.423535,-1.188092,1.916536,-0.423837,-1.785162,0.058855,2.913898,-1.253022,3.137394,0.481107,1.594148,-0.701049,3.549304,-2.343529,3.340253,-1.70238,0.79398,5.395096,0.468224,-3.097313,0.180687,2.519674,-1.725101,0.646767,-3.521265,-0.878887,2.726686,0.573084,-3.051923,0.200479,3.045317,-0.067153,2.551976,-4.177489,2.968109,3.345399,2.102296,-5.824433,6.152258,2.329393,-1.697672,-2.473922,5.456179,0.677394,-4.901094,1171.244995,1651.903198,-1941.016235,2095.624023,-1.87877,3.718936,1.042115,3.194557
stress4,L2,F0,280_400,-0.971488,0.846102,-0.873223,-1.266667,1.170242,1.502302,-2.230144,-4.60767,-0.748347,1.85778,-2.090366,-1.455739,-1.581055,-0.5088,-0.934645,1.478803,-1.368858,0.372314,-2.749346,-1.251453,2.132634,1.800925,-3.562473,-5.494508,0.446619,-1.048631,-2.549803,-1.876942,-1.260838,-1.378845,-3.069382,0.39696,-3.743717,-5.586761,1.402753,4.768339,-0.231309,-1.008417,-4.458489,0.317976,1.327296,-2.442114,-1.468888,-2.149274,1.10077,-2.174677,-1.001794,-1.224557,0.09941,-1.662059,-2.993648,-0.345711,-2.143249,-3.044235,-4.406428,0.67985,-2.071604,-1.474692,-3.048775,2.175074,-1.668538,-2.517055,-1.714267,1.660847,-1.63506,-1.496665,-1.553838,2.183137,1.947388,-1.599628,-2.213058,-0.383564,-0.561754,-0.057513,-0.623401,0.829062,-0.393223,-2.688178,2.75626,2.700002,2.191671,-0.210596,-0.569394,-1.337064,2.087306,-1.113914,0.434016,-3.097708,1.639546,-1.254731,-0.273719,-3.557101,2.445589,-0.09213,-1.416734,-3.386402,4.185689,1.686006,1.262143,-0.929264,1.929744,0.570961,4.958655,0.225864,1.368415,2.360471,-0.997294,-2.959043,1.26172,3.155294,0.394582,-3.844199,2.73931,4.4157400000000004,-1.55849,-3.421791,1.858366,4.439647,-0.03777,-1.538657,1.953801,1.893238,-1.167596,-3.311344,979.121399,930.730347,-2763.910156,2158.397217,1.378979,2.758313,-1.386338,-2.489447
stress5,L2,F0,280_400,-2.646391,-18.015987,-20.488565,2.821975,-0.065618,2.432702,1.930498,-2.194643,3.788983,5.424067,4.63251,1.325496,3.399267,3.548638,3.965551,-0.521092,3.848533,4.462427,1.368395,-0.238596,-0.992668,2.337219,-0.0671,-2.188156,1.109891,3.277116,-1.474408,-1.486998,3.385485,3.944948,2.385749,-0.313067,4.54631,-3.7305,-0.276121,3.541948,1.090885,1.91608,-2.424271,-1.505252,-1.952377,0.20387,-5.748956,-2.08664,-4.837503,-3.498972,-7.319483,-4.444517,-1.074728,-1.28172,-5.722001,-0.238564,0.526581,-0.14362,-2.570993,-0.007571,-2.637064,-3.6431,-5.026523,1.790461,-5.121778,-3.94001,-5.31088,-2.613259,-4.29373,-4.495805,-4.733484,-3.411426,-5.178908,-4.039239,-6.412843,-5.764033,-3.623435,-1.982332,-3.569948,-2.929597,2.098785,-3.94751,-0.348806,0.847317,-3.529339,-1.597093,-3.861406,-5.377986,-4.472745,-1.70751,-5.025602,-4.72401,-3.702209,1.907956,-1.430923,-3.833884,-4.331987,-1.037366,-2.385529,-4.31016,-0.4055,1.142596,-2.087063,-1.882779,0.393234,2.303849,0.95321,1.908392,-1.316931,0.646483,-1.922971,-3.696905,-2.967628,2.11803,-0.700657,-3.685632,-2.553144,1.537577,-0.539215,-3.281886,-1.100195,0.353677,-1.072527,-0.581329,-3.045559,0.940936,-5.829863,3.189812,1601.574219,1027.950684,-2387.500244,2061.385498,-2.21503,2.559337,0.208309,-1.463088
stress6,L2,F0,280_400,-0.047022,-0.180745,5.286114,-3.35011,-1.804343,0.161928,1.874868,-2.189992,-0.305325,0.992031,0.674281,1.399385,0.380396,1.20772,0.994079,3.445014,-1.55282,0.560613,-0.228064,0.129726,-0.887527,-2.46407,0.797958,-3.134694,-1.497553,-0.613418,-0.356759,-2.152348,-0.186446,1.146343,-2.021799,2.88352,-1.202725,4.868236,-2.971292,1.742392,-1.420032,0.393842,-1.403118,-0.927403,-2.199187,-3.633435,-0.500316,-4.642795,-3.14985,-5.02576,0.22804,-5.294505,-2.851546,-1.617789,-0.385766,-4.236412,-2.668087,1.589362,-0.878546,-1.265883,-4.345866,-1.314606,-0.57667,-6.399009,-4.404971,-2.303073,-0.651645,-6.713975,-3.481756,-4.722965,-0.995691,-7.262577,-1.018665,-5.150908,-0.974715,-4.862212,-0.526858,-1.870236,-1.194902,-2.727648,1.28622,3.437205,-4.566987,1.451846,0.997368,-3.10156,-1.367319,-1.069685,-0.853151,-4.785388,-0.677874,-4.852522,-0.893216,-3.052955,0.051714,-4.179069,0.009046,-4.87544,-0.099438,-2.899342,1.621101,-2.640801,-1.044683,3.536964,3.34831,-2.656492,-1.664961,5.474361,0.964451,-4.32027,-1.111161,1.593443,-0.08352,-2.607706,1.060543,-3.683801,-0.221681,-4.560529,0.132549,-1.68175,1.320014,-5.00778,-1.150389,4.048524,-1.350485,-2.8481,1.817259,-4.224539,1974.929932,871.993103,-2607.178223,1601.897705,-0.027831,-2.768481,2.512759,-1.064746
stress7,L2,F0,280_400,5.135892,-7.831207,-1.782113,-10.890857,2.400117,-4.670883,-7.176411,-5.454941,-1.05502,9.980744,-4.247655,3.836815,5.71805,-7.506013,8.958419,-6.110168,-3.067586,11.539149,-13.283803,7.157701,3.381177,-5.054105,-5.072869,-5.36576,3.569259,-7.381217,-6.712286,-7.239185,-4.207327,10.911967,-3.308568,9.614244,-1.846436,9.675145,7.181523,7.989273,0.825515,-4.737609,-2.970715,-4.255415,1.75039,-5.316628,-5.126326,-5.709178,0.230018,-4.729029,-3.531511,-6.256657,0.606028,-4.284591,-3.228197,-5.169906,0.634895,-2.93816,0.691606,-1.860235,-0.013593,-4.331674,-0.365912,-4.113071,0.171042,-4.385168,-1.155627,-3.596225,-0.707342,-4.346138,-0.566076,-4.382585,-0.544862,-5.332583,-2.859384,-5.866492,-1.257624,-5.773202,-0.069477,-3.499492,-6.454749,4.011094,6.249451,6.206371,-1.646241,-5.426282,-4.123807,-5.528917,0.752583,-5.984332,-4.570158,-6.426513,1.433309,-5.562731,-3.234594,-5.688815,-0.119167,-7.914996,-6.219531,-8.225607,-13.852593,14.437951,-7.300679,9.236125,3.813431,-6.955391,4.666123,-7.167923,-8.574022,8.739775,-13.102013,1.34293,3.646762,-6.930861,-1.972271,-6.880802,0.358136,-4.351557,-6.392505,-5.121345,-4.417585,7.293552,-7.839896,1.168471,3.274771,-8.483058,-3.083874,-8.61799,1876.897705,600.483276,-2658.364258,1763.611084,2.767062,-4.562079,-4.476991,-4.731882
stress8,L2,F0,280_400,-12.725112,-11.260582,1.827718,3.262086,-5.43659,-3.96974,1.805475,3.793546,-10.464709,-5.07619,4.015807,6.677755,-1.727067,-0.731694,3.461942,-2.748832,-2.9924,-2.693478,4.079939,1.796124,-2.076204,-3.054741,1.146224,3.458747,-1.237588,-1.473853,-0.336921,2.981477,-1.015994,-3.134436,1.000085,1.579993,5.853537,4.94991,-4.698294,-6.20838,-0.721433,0.090899,0.466527,1.026768,-1.054016,-0.515661,-0.145599,0.189387,-0.845966,-3.06027,-1.513398,0.439716,-0.270056,-1.138696,-1.204689,0.649756,-0.64647,1.14656,-0.303994,-1.891159,-0.398893,1.732606,-1.679505,0.14818,-0.494768,2.230109,-4.061447,1.213703,0.238423,0.328963,-0.693501,-0.33700599999999997,-1.611947,-3.399346,-2.34101,2.071987,1.18656,-0.654674,-1.364505,0.125743,8.64751,2.588106,-1.252925,-0.279955,-1.10562,-1.582289,-2.693686,1.093661,-1.658459,-3.810982,-1.927779,-1.130843,-1.161476,-2.997135,-0.465385,2.046599,0.006411,-2.4208,-0.300279,0.903745,2.493038,1.857567,0.239412,1.286875,7.00404,10.033395,4.28125,5.054822,1.753605,1.625761,1.826189,2.13702,-1.432903,-0.736987,-0.061452,4.954049,-2.797921,2.189396,2.767355,2.739609,4.91324,6.403573,3.901104,1.498376,-7.320253,-5.86166,2.982744,3.236425,1891.151123,786.233887,-2626.92041,1610.870605,-4.833683,-2.512674,1.983738,2.162778
stress9,L2,F0,280_400,-0.205668,-1.712596,3.568015,-1.109797,-0.250701,-0.92776,0.889271,-2.028838,0.352722,-1.329448,3.215855,-0.7167,0.625278,0.238637,2.943879,1.341762,-0.180239,1.546418,-0.544444,-2.932481,-1.344843,-0.034781,1.180875,-4.114183,-0.68877,1.9005050000000001,1.068155,-2.89205,0.781912,1.616755,1.086949,-0.904806,1.046573,-6.228029,7.854239,6.535763,-0.819752,0.666803,1.684858,-2.607955,-1.377732,-0.700661,3.021554,-3.60614,-1.3701,-2.328904,1.509159,-2.107145,-1.545133,-1.113725,3.073443,-1.342857,0.285887,-1.303652,4.260603,0.117274,-0.788737,-2.494569,2.830928,0.343371,-0.096886,-2.60388,-1.147695,0.084267,-1.317995,-3.768363,0.441337,1.759542,-2.500387,-2.091743,0.334272,-0.026967,-1.207681,-3.4528470000000002,-0.409959,2.080087,0.783984,-11.163966,7.338305,9.512083,-2.119292,-3.274781,-0.966504,-0.716526,-2.026949,-3.812635,2.695138,-0.812774,-1.250055,-0.695603,2.912677,-3.592086,-1.796687,-2.750719,0.003683,-2.409867,0.631857,-1.598577,-1.049816,0.745142,1.138901,-0.629623,1.558487,2.388315,-0.618069,-0.255092,-0.824672,-0.878607,-2.237207,-1.938117,2.204656,-1.683299,-1.389268,-0.252297,1.248964,-2.382936,0.017359,0.186347,1.133128,1.203305,0.121145,1.000038,2.128313,-1.377934,1780.332031,791.350586,-2552.983887,1565.727539,-0.610188,5.797333,-5.064182,-5.349283
stress1,L1,F0,400_600,-7.930168,11.135459000000001,-1.237104,-4.320783,-5.487538,6.480819,1.054891,-1.018716,6.100159,-8.721268,-0.610789,3.922988,8.126997,6.166955,-1.666419,6.291537,-0.23594300000000001,5.581172,2.084274,-1.557703,-5.460066,2.745505,2.510388,-1.600606,-5.983854,6.11986,1.993141,-1.100171,-1.533213,5.939752,-10.292955,0.052733,8.751258,-10.803586,5.328314,-0.795149,-1.06033,13.203707,-1.095071,0.15904,-6.314597,1.200065,5.233231,-0.989764,-4.686779,0.471068,5.063996,-0.568149,-5.258741,3.415265,3.515813,0.483912,6.634154,10.849934,4.081491,-2.039109,1.180055,4.994874,9.33546,2.68416,-0.956085,4.703464,3.318455,1.401993,-1.19515,3.169952,0.616844,-0.092439,-4.825971,2.033473,6.391595,0.234662,1.357439,4.001732,-0.527264,1.426662,13.734955,-15.445205,-8.250464,5.750092,-2.719152,9.619668,-3.185405,0.525111,-5.629942,2.148622,3.57728,0.027825,-7.567217,2.367047,4.419699,-0.747743,-5.604075,4.274596,4.233994,0.346556,-4.811171,10.150144,-14.004137,0.018226,-2.204412,26.577715,-8.890373,3.010327,-3.379901,17.990303,-3.639626,-0.036728,-6.007682,5.207486,2.189453,-0.412309,-6.125223,12.97506,-1.137538,-0.114869,5.505209,19.476982,-41.765888,-0.810569,-17.65604,5.841864,-9.284489,-3.168787,223.081345,-48.014099,497.067444,-1109.137207,-7.495405,8.749597,0.974048,-1.651646
stress1,L2,F0,400_600,3.470898,-1.693717,2.159558,-1.638852,3.708042,-1.425007,3.779571,0.294349,4.398497,-0.30682,1.40713,-0.185565,2.381114,-0.928575,-0.93177,0.2752,3.912656,-2.278254,2.442488,0.139873,3.931134,-2.950308,4.518988,-0.37325,4.750991,-3.254711,4.46387,-0.302371,0.347118,-2.745002,-0.618885,-0.620069,-2.150232,1.409277,-5.23346,-0.005366,1.787652,-3.904551,3.556925,-0.450793,4.432534,-4.453566,4.057894,-0.545144,1.506314,-3.450094,3.518813,-1.695597,2.100913,-5.055833,3.562061,-0.738106,0.96572,-4.652846,0.630587,-0.716709,-1.181743,-3.355895,0.519683,-1.136749,-1.666906,-2.627641,1.778332,-0.81275,-2.433063,-2.71111,0.470408,-1.478364,-1.749423,-3.443619,0.789393,-1.985697,-3.562368,-2.296999,-0.156414,-2.604261,-4.666991,2.619295,-5.031936,0.700892,-1.349838,-2.504066,-0.9584,-1.9777,1.588861,-3.580548,2.170028,-1.325488,4.061087,-4.3341,4.278317,0.261901,1.363356,-1.624873,1.05455,-2.225455,-2.478589,0.703724,-0.904404,-0.646975,-2.646721,3.529701,-1.880258,2.099071,-0.480707,1.482586,0.301339,-0.9754,1.78501,-1.694605,2.903156,1.151,1.13991,-0.339139,2.581098,-1.152543,-1.726629,4.060864,-1.028994,1.526943,3.498929,-0.462082,1.39836,-1.016405,590.071411,272.803314,850.391296,-910.152893,2.272408,-1.342857,3.421799,-0.231842
stress10,L2,F0,400_600,-11.14703,-3.246006,11.476139,-10.228858,-6.602452,-4.435568,-0.839273,-6.991597,-1.995774,-1.412008,-13.524863,-6.087977,2.473066,-0.604747,-12.073509,0.00669,-3.615171,-2.691483,-7.922336,-4.559006,-6.801538,-5.444533,0.130053,-5.195865,-4.702749,-1.941389,-2.141181,-3.156782,-1.000093,-0.456953,-8.236957,-1.983404,13.138707,9.252016,-8.686431,8.290504,-1.333472,0.394647,-3.709471,-0.535381,-4.381918,-1.218223,-0.815282,-1.894424,-0.492724,0.280413,0.582837,1.298876,-0.860854,1.659389,0.280629,0.608303,2.896593,3.028758,-3.299294,2.387275,2.869302,6.037322,-2.170115,1.426897,4.391592,4.544705,-1.097795,3.984431,2.809969,3.750852,0.598373,3.770972,-2.079238,2.15788,0.106922,0.29369,1.488167,1.822162,0.909087,2.055958,12.5624,8.025492,-0.858557,10.598867,-2.626606,-0.813228,1.649336,-0.995607,-3.076246,-3.107388,0.836225,-0.357717,-6.198737,-4.584071,1.122594,-3.958009,-3.725719,-3.718256,2.517614,-2.258291,-1.88693,-2.309518,1.961622,0.412463,0.910215,-3.578421,3.666917,2.169331,-4.836789,-3.876351,4.716311,-1.574079,-7.54045,-6.917578,2.301683,-4.668258,-8.73366,-6.0106,6.596704,-4.96751,-3.376306,-4.773161,10.007641,-0.185413,-13.553721,-5.955454,13.211033,-7.725981,-919.569763,293.50174,167.461716,-821.311218,-8.567035,-5.759171,3.181662,-6.296455
stress11,L2,F0,400_600,-4.574375,-11.739054,-6.109156,-16.596617,-9.629307,-1.96782,1.584064,-6.626184,-23.78969,-19.617607,-4.525938,-14.607006,-17.091656,-9.96153,-1.962618,-3.645824,-7.946974,-3.797739,1.061519,-3.595252,-1.16246,1.031042,1.155302,-1.973253,-2.243116,0.019624,0.558795,-0.942367,-10.67665,-5.606617,-3.08391,-4.035471,-11.254498,-7.650236,-1.191764,-1.494246,-4.075122,-0.354413,1.825865,-0.589714,0.392613,2.198055,1.397469,-3.71154,-3.862767,3.087828,-0.528967,-5.870667,-0.055468,2.406151,1.926102,-1.568981,-3.287828,-0.859809,0.559116,3.284121,1.437183,5.576458,3.320976,-0.078358,1.311978,4.145444,1.60051,-0.397956,3.400057,4.176841,3.73337,-2.319865,1.355866,1.646124,-0.568817,5.201918,6.139237,5.452446,2.175628,0.796361,7.988451,-0.590374,-1.368413,3.809734,4.313726,4.389488,0.866086,1.791147,0.518409,3.534818,1.151492,-1.658056,0.079878,2.512657,1.515187,-2.726285,5.911015,3.512019,-0.466049,-0.287631,6.679766,6.971236,-0.060313,2.107197,17.509371,11.230138,1.868416,10.631094,13.338401,8.451274,3.12226,4.759857,2.173363,4.544949,-0.363075,-1.54728,10.453177,7.888611,-2.114172,2.452956,25.894745,10.481025,4.792455,9.699393,11.235206,-28.759209,-10.087929,-17.794798,-1022.459045,-46.298275,282.768768,-1150.403931,1.088682,2.74687,0.853394,-0.77183
stress12,L2,F0,400_600,1.308297,0.304372,-0.082284,0.123233,1.45065,1.582195,1.512085,-0.604961,0.423854,2.913563,1.689567,0.944095,4.023069,3.657173,-3.983916,-1.537928,1.076578,1.518908,1.162045,0.743379,0.539899,0.184595,1.500243,-0.605336,0.579474,1.864172,3.048074,-0.155418,-0.024207,3.316548,2.052721,2.499914,-3.19845,0.534196,1.86323,-0.713384,-2.183289,1.203887,3.709697,0.488648,0.111777,-0.06984,3.185618,1.783102,-1.539856,-2.535855,3.584182,-0.950285,-0.439117,0.214014,3.902761,1.792468,-1.277939,-0.195819,1.769283,1.401165,-1.301746,-1.661713,4.009123,0.456077,-1.787666,-4.104478,0.86121,0.399044,-2.832231,-5.0522030000000004,0.241737,0.293421,-2.148357,-5.99139,2.161328,-2.964353,-2.86871,-6.480279,0.373375,-0.100756,-1.932472,-1.628966,-0.634757,0.284682,-1.930677,-5.25831,0.38263200000000003,-2.234008,0.910249,-3.53861,3.159652,-0.052192,0.292627,-0.003662,2.359123,0.450628,-0.820185,-3.24606,0.760806,-1.477623,-0.131229,-2.421122,0.767298,-1.435655,4.810526,-0.286618,-1.960837,-0.348482,1.770243,-0.971768,-1.078593,-0.225018,1.850658,-0.86686,0.667942,-1.187657,-1.131318,2.941263,0.205717,-2.890953,6.366865,2.910951,0.870867,-0.929002,2.628189,0.138379,-0.540466,0.424661,-479.823792,-47.930878,498.400421,-994.380615,1.710306,0.364924,-0.409492,0.1429
stress13,L2,F0,400_600,-1.282534,0.318267,-2.191138,0.537103,-1.755177,1.318131,0.14692,3.255192,-4.353088,0.385106,-1.487203,2.836566,1.338062,-1.283743,-3.517067,0.609073,-0.955032,-0.22361,-0.638028,3.052591,-2.685924,-2.171144,1.389687,1.267609,-2.089178,-0.774678,2.258218,1.667021,-0.135524,-0.046182,-0.852799,0.353927,0.745515,1.918726,-3.099515,-1.304648,-1.009887,0.550052,0.771973,2.20849,-2.40875,-2.620542,0.678979,0.822515,-2.957314,-3.394232,-0.69185,1.159888,-1.1077,-1.730222,0.725284,2.186397,-0.066068,1.093807,0.92547,2.134223,-1.081461,-2.245409,-0.716825,2.65082,-1.612612,-5.037272,-2.490276,3.013582,-1.993352,-4.160431,-2.357005,1.916708,-3.193376,-4.098317,-2.652945,0.932916,-3.347801,-1.166742,-1.277076,2.894014,0.904998,2.851105,0.546708,-2.209213,-3.634695,-3.685227,-1.122759,2.498761,-3.337748,-2.480297,-0.328886,-0.123483,-1.454632,-2.180746,0.824154,-0.057902,-2.746704,-1.785497,-1.408851,-0.97817,-1.669473,-0.481331,-0.848199,-0.98072,-0.327935,1.744301,-0.238052,-4.503159,-1.307329,-0.666254,1.286392,-2.134939,-1.224288,-1.955206,2.543127,0.074389,1.244326,1.032173,-0.40124,-1.700375,0.724544,1.127465,6.906261,-4.531907,-0.186774,-0.397345,-1.1005,0.982381,-792.487183,223.319229,404.889801,-945.957458,-0.55017,-1.589944,0.850935,1.171287
stress14,L2,F0,400_600,-5.069029,3.748471,-1.352283,2.399538,-5.780816,3.762744,-2.270843,4.110701,-13.362911,6.14407,-1.106387,10.271642,-8.173423,1.40912,0.038722,7.078088,-5.962009,3.256885,-2.471014,3.45565,-2.328355,3.53201,-0.671277,2.163685,-3.138169,2.36638,-0.619276,0.321675,-6.810083,1.942984,-0.230952,3.78561,-2.023498,-2.990602,4.126321,0.535274,-5.428888,-0.20721,-1.296312,-0.356642,-1.433743,-1.112594,0.249464,-0.089639,-1.782904,-3.453004,2.681508,-1.522357,-3.111315,-3.070791,1.65087,-0.846319,-4.969207,-3.304468,-0.504416,-0.398231,-5.296577,-6.071262,0.8111,-1.720834,-4.132058,-6.687233,0.776169,-3.419229,-3.577948,-8.107779,-2.232612,-3.63473,-1.45417,-3.764209,1.058062,-4.032859,-1.479778,-4.230683,0.169612,-3.736525,3.577584,-8.616239,2.760722,-3.941992,-0.858996,-2.64151,-2.760263,-4.700735,-1.437096,-2.024019,0.572093,-1.727528,0.38856,0.585335,1.908112,1.639736,1.646923,-1.247177,1.887046,-3.013578,2.62544,-6.596522,0.787227,-0.918931,7.561664,-6.548151,3.801576,-3.350145,4.183098,-1.618774,1.704998,-3.665325,-0.399543,2.339658,-0.740776,-0.039073,2.525742,1.378824,0.986049,-1.920752,9.052067,-3.3447,2.733593,-5.116129,0.972313,4.462262,0.00872,-1.969604,-862.026062,269.594269,404.745331,-1124.788696,-0.518029,3.868948,-2.295681,1.135573
stress15,L2,F0,400_600,-1.021537,-0.059687,-10.147923,-0.296911,0.700218,0.472115,-3.946998,4.963622,0.787489,4.700656,-3.271844,15.788009,2.1686550000000002,5.071514,1.857677,12.261261,1.006872,2.828358,-3.662927,8.36103,-0.444886,-0.514182,-5.627499,1.69504,-1.724131,0.857206,-6.596196,5.731184,-0.751366,3.056108,-2.114263,6.146821,0.074933,1.851198,5.721929,3.190608,-1.150923,-0.431152,-4.088972,3.307285,-2.463125,-4.039097,-8.677046,4.116688,-3.564467,-6.175934,-8.768039,2.891637,-1.349268,-3.530366,-6.326087,2.769326,-1.641852,-2.066003,-2.221002,1.386268,-2.387803,-3.979584,-2.193984,1.608114,-2.163519,-4.773846,-1.829002,2.428688,-2.151121,-5.125763,-2.588036,1.676057,-3.313461,-5.867274,-4.950173,1.346893,-1.716241,-2.878314,-1.785835,0.669795,-1.035338,1.339759,11.912434,-1.276518,-2.351111,-3.394084,-3.474432,-2.555592,-2.009698,-4.424012,-8.658247,1.50405,-2.731516,-4.470328,-8.117863,1.28837,-2.33024,-2.266906,-4.327816,-2.221599,-0.627159,-0.182224,-1.273319,-5.856302,1.541685,2.458543,1.635001,-7.244793,-0.900384,0.003771,-2.529653,-7.546584,-1.243311,-2.148027,-3.760011,-1.038276,-0.415665,-1.77468,-2.624445,-4.122533,2.154684,1.153457,-1.586086,-10.466631,1.412371,-3.630926,-10.537109,-0.272571,-1003.036987,302.84433,418.875305,-1138.106201,0.320135,-1.063653,-5.87812,-0.63803
stress16,L2,F0,400_600,-62.120415,-38.038071,-4.710191,-20.517773,-17.8269,-8.392427,-5.544333,-5.422338,-14.583476,-8.431598,-2.651903,-0.727392,0.200757,-0.21052,1.144851,4.621613,-7.152571,-4.380002,-2.625535,0.849053,-4.99212,-3.029563,-4.579136,-0.718249,-1.620599,-0.915575,-4.165776,0.670598,0.577389,-0.749613,1.66784,2.447508,16.298014,9.762874,8.33306,5.483118,0.305944,0.688695,-1.468721,0.793266,-1.33568,0.843334,-1.572301,-1.145932,-1.012373,0.993573,-0.151843,0.038061,0.474864,0.172266,-0.89972,-1.077276,3.008118,2.405023,0.791148,-0.310722,2.812675,2.231973,1.712419,-2.998433,3.67786,3.189117,2.30333,-3.604789,0.765671,2.654385,0.44562,-6.817181,-0.151273,-1.059715,0.502307,-2.284729,1.65776,0.618205,1.422707,-3.238688,15.681083,8.680003,7.959565,3.899201,0.467005,-1.009273,0.787724,0.23884,-1.833576,-0.574419,-2.233006,-0.430626,-2.031461,-0.625513,-2.567999,-1.665969,-1.516814,-1.197358,-0.911176,0.593814,2.028784,2.269346,1.503263,3.117635,3.185435,1.376981,1.199079,6.294463,-1.87751,-1.542369,-0.690314,2.727151,-4.199925,-3.026093,-3.936314,-3.190328,-11.1103,-7.184587,-2.990968,-2.422812,-6.714614,-2.858595,-0.721015,3.668851,-42.894077,-27.080107,-5.523981,-10.939179,-1065.692871,229.268021,379.169373,-991.224609,-10.659702,-6.147627,-5.430878,-3.127442
stress17,L2,F0,400_600,-4.070502,-3.329493,0.63018,-3.262883,-4.065003,-1.460494,-1.524655,-4.382217,-1.364004,0.985409,0.483409,-3.141915,0.159085,2.956687,1.831242,0.501429,-2.394882,0.217577,-1.046953,-3.011926,-4.647778,-2.536865,-2.174368,-5.148167,-1.773586,-3.684767,-0.099467,-2.803188,-0.430719,1.244871,0.356412,-0.506995,6.959631,4.919291,1.344519,5.623785,0.595583,-0.938709,0.480981,-1.22878,-1.400482,-4.716602,-0.781304,-5.276937,-2.626607,-5.034927,0.815338,-4.94808,0.339404,-5.14025,2.796736,-2.220443,1.403988,-0.54193,1.94373,0.559955,0.759926,-3.734218,3.216973,-0.596482,0.782876,-3.810133,3.251913,-0.60436,1.004882,-3.464843,1.893315,-0.680962,0.203963,-9.277433,1.601258,2.526126,2.138716,-3.262258,0.750206,0.324459,8.707041,3.226605,1.288052,7.484907,-0.056222,-2.591655,0.770473,-0.282784,-3.311087,-5.60095,-0.410819,-5.017153,-5.060099,-5.537256,-2.009267,-5.965893,-2.476464,-3.465617,-1.476722,-2.856303,0.066823,1.001846,-0.404154,1.788339,0.786685,4.297478,0.440279,3.655473,-2.054698,-0.717535,-0.643283,-2.936608,-5.834519,-5.214391,0.442446,-6.298917,-4.880806,-1.319892,-1.026338,-3.410791,-1.717946,1.956293,-0.368112,0.719249,-4.953619,0.3886,-0.165249,-1.902106,-741.80896,507.466644,306.744293,-913.563232,-5.222225,-2.715299,-0.877524,-4.369563
stress18,L2,F0,400_600,1.588187,1.798044,1.167566,1.359221,0.296142,-1.288925,0.245383,-3.306533,1.423912,1.500524,0.412702,1.063451,1.70733,1.835827,1.886344,1.627107,1.645402,1.108773,0.709348,-0.61141,0.768638,-0.746356,0.888418,-2.999131,1.432624,-0.205141,1.490679,-3.30683,1.234498,1.112363,2.082203,-0.343825,0.736051,4.415239,4.529152,5.476539,0.959291,0.722212,2.23499,-3.924917,1.69878,-0.255354,2.015533,-4.647175,3.048799,-0.209095,2.489797,-4.047047,3.465975,1.165871,1.97202,-4.831654,2.018778,2.56868,5.115724,-0.084959,4.081681,3.533628,3.780965,-1.155311,4.237155,1.776523,1.817345,-0.133519,2.248926,-0.381938,0.669656,-0.243768,2.572948,-1.510676,-1.44127,-4.478786,0.006423,-2.210183,0.266248,-1.61036,0.961017,0.240789,0.071514,4.402532,-0.496168,-2.878039,-1.516071,-2.94581,0.097109,-2.384229,-1.496117,-3.292564,0.648877,-0.832607,1.381405,-2.824451,0.039394,-2.210946,-0.725587,-4.17311,1.356022,-0.889834,-2.659638,-3.689147,-0.662867,2.566027,0.053398,1.147078,-1.161835,-0.971908,-0.260731,-1.982073,-1.080528,-0.289235,1.087885,-4.889548,0.18565,-0.822723,-1.212967,-1.326331,-0.924721,0.871098,-1.548417,-0.542298,-0.720003,1.726457,-0.721538,-0.913889,-614.724243,430.39801,414.3302,-866.408508,-0.565688,-1.552009,-1.533555,-3.293023
stress19,L2,F0,400_600,0.640266,2.951203,-0.439681,3.083633,-0.297199,-0.437732,-0.515522,3.574162,0.708695,2.018812,-0.430379,4.908219,2.156042,1.853547,0.034776,2.187848,0.351009,0.696115,0.981901,4.269005,-0.768054,-1.030797,0.774686,2.81801,0.503236,-0.146928,2.154855,2.893675,1.352281,0.583808,1.879619,2.361532,3.802672,3.667207,1.443578,-0.135753,0.014012,0.254766,3.598361,2.605158,-1.857268,-3.673199,2.788809,-0.511753,-2.2078700000000002,-4.929599,1.216293,-2.550294,-0.127353,-0.981062,4.149614,-0.602833,0.157472,0.071987,3.20894,1.70183,1.090427,-1.202694,3.238868,-0.496936,-0.781774,-0.72975,2.714957,-2.87322,-0.067428,-1.521522,3.4081,-3.695861,-3.12043,-3.321609,2.484658,-3.509713,-1.277122,-2.04397,2.557993,-3.565044,1.945974,3.040504,1.146384,-2.362496,-3.773017,-3.374869,0.497463,-3.075055,-3.194599,-5.506965,1.888049,-2.699916,-2.247675,-4.555936,1.432249,-0.174313,-3.768743,-3.435716,0.571295,-2.325572,-1.997555,-2.68923,-0.342623,-2.467543,0.923057,-0.931227,-0.482261,-3.615498,-2.266858,-2.478776,-0.036975,-1.09128,-3.2925,-2.750986,1.12163,-0.138487,-2.527959,-1.701333,1.118369,-0.579376,-1.159325,-0.680418,0.907475,-0.550059,0.876928,2.340255,-0.75593,-1.147542,-2520.337158,-694.124268,-85.62339,-1085.347412,-1.916212,-2.235903,-0.863319,0.832751
stress2,L1,F0,400_600,5.377815,1.676203,0.459858,0.865733,3.509165,-0.104292,-0.644947,0.831321,2.023489,1.071246,-0.849423,1.984783,1.225333,-0.034461,0.055772,1.283928,0.976419,-1.290874,-1.235003,0.319007,1.870848,-0.813468,-0.018425,-0.939614,-0.084547,-1.300493,-2.204119,-0.5207,0.143569,-1.555144,-1.154496,-0.351072,-2.371612,-0.89883,-0.061481,0.852651,-0.943399,-1.17768,-1.913831,-1.204339,0.746886,-7.22836,-1.328195,-8.626165,-1.759621,-2.242799,-1.215054,-1.510773,-0.987318,-1.574431,-1.677818,-0.78337,0.488924,-2.392654,-1.853802,-0.953373,-1.068318,-0.86137,0.048909,-0.394118,-2.008575,-1.580393,-1.043422,-2.464048,-3.180412,-2.211559,-1.771173,-2.1235560000000002,-3.074709,-1.04107,-1.304454,-0.479819,-2.759673,-1.084771,-0.193724,-0.954425,-3.816279,1.75805,-0.876412,-3.501325,-2.750881,-1.687294,-0.989937,-0.398706,-1.972542,-0.890833,-0.917558,0.033504,-0.200303,-1.036246,-0.62941,-0.588697,-0.043078,-0.400408,-0.402153,0.215753,-0.852885,-1.505908,-0.305769,-1.246091,2.330653,1.715474,0.189818,2.414161,0.420666,0.056551,-0.18975,0.709851,1.141811,0.076675,0.316194,0.762594,0.937361,2.41186,0.510532,0.729047,4.356422,1.311157,1.371969,1.727266,5.345457,3.646001,0.544633,0.728812,245.622665,255.532227,491.490265,-1187.427246,2.062631,-0.286405,0.312631,0.882892
stress2,L2,F0,400_600,-3.942609,-0.936192,-0.051154,0.322532,-3.264923,-4.277756,-3.631865,-2.584482,-4.866134,0.706215,0.643035,-2.541885,-3.047894,0.606284,3.163001,1.561131,-3.779429,-3.66424,-1.253992,-2.019633,-1.542199,-4.623458,-3.055822,-2.79537,-0.594813,-3.788364,-2.058203,-3.382812,-3.467863,-3.038333,1.520471,-0.705883,5.512997,2.373919,6.599715,6.31043,1.522812,-1.607648,1.009954,-0.635429,4.088571,-3.661893,-1.274728,-4.135842,5.885543,-1.179959,1.371058,-3.088351,4.003211,-2.263782,3.148293,-0.275437,4.198384,0.83556,4.731205,3.079169,7.471114,2.656916,6.644813,2.367228,7.51296,3.003417,7.046939,1.605212,8.764365,3.73305,5.968064,1.481232,5.933244,0.480945,0.558483,-2.488387,4.951202,4.059164,3.805724,1.041354,4.990496,3.888666,7.865448,4.94709,1.795689,0.161102,-0.463377,-2.746603,2.523365,-1.592618,-1.567916,-4.632682,1.916599,-2.718463,-1.499285,-6.112955,-3.2387,-3.175711,-1.965913,-6.620684,-3.18304,-1.885284,1.026682,-1.823922,-4.604035,0.840809,0.892128,-1.265223,-6.980944,-4.291462,-1.858888,-7.811727,-4.964421,-1.903198,-3.714413,-6.928999,-3.981386,-2.086332,-4.712792,-8.67,-6.540659,-6.127958,-0.970971,-7.419795,-3.414196,0.606333,-0.246877,-4.910479,474.542297,237.658524,599.518921,-989.978882,-3.501165,-2.087528,-4.821721,-3.752507
stress20,L2,F0,400_600,-27.14768,-10.064505,-8.022185,-1.900412,-9.248609,-2.81846,-5.456172,-1.073128,-4.42328,-2.891263,-6.258857,-2.567183,3.299582,-0.106143,-2.348789,-1.395373,-4.098647,-0.839624,-4.052798,-1.199247,-5.11191,-1.527662,-3.273509,-2.455725,-4.043646,0.920897,-1.95735,-0.916722,-1.256609,1.119665,-1.910418,-1.793628,12.045632,2.951942,6.972984,4.264617,-0.622994,2.201943,0.331753,-0.123204,-3.649835,0.755322,-1.295671,-0.745214,-3.195029,0.862589,0.085022,-0.417032,-1.426189,2.227181,2.107202,-0.384923,1.766328,1.292217,4.397766,1.313115,-0.327534,-0.152002,5.631124,-0.19737,0.138862,-0.39753,4.367143,0.69725,0.342631,-0.809383,4.344325,1.041982,-1.664567,0.467682,0.261281,-0.700972,0.463535,-1.71619,3.152609,0.607015,13.10594,1.933519,6.547981,2.380706,-0.415122,0.444475,-0.992574,-1.537929,-4.433101,0.531806,-1.595383,-1.309916,-4.627624,-0.483418,-2.91063,-1.486146,-2.789562,0.327236,-2.355176,-2.258478,2.52401,1.567075,-1.027113,-2.591293,7.217613,3.397932,-0.171841,-2.672063,-1.767381,-0.472835,-3.610844,-4.326843,-5.523084,-1.620103,-3.766472,-2.811526,-7.249514,-1.08475,-3.919518,-3.067654,-1.174024,2.336366,-3.299951,-3.009763,-22.200912,-7.13889,-6.592412,-0.536967,-651.211182,478.699921,212.909317,-901.226868,-8.38386,-1.628489,-4.506988,-2.215107
stress21,L2,F0,400_600,1.288587,1.158432,-1.267933,-0.247019,-2.752565,0.527239,0.153101,-0.668296,3.61052,1.477475,1.545172,-1.767775,2.362762,1.543332,0.299021,-0.327274,-9.605115,0.233564,1.877817,-0.805621,-1.859287,0.801536,-0.391651,-0.384535,-0.529794,0.471026,0.575415,-0.150886,-2.740489,-0.250847,0.627971,-1.725424,4.648006,-1.05616,0.360606,0.24212,0.017241,-1.036453,-0.238498,-1.908549,0.98865,-0.401724,-1.074319,0.331246,1.590568,-1.2255,-1.256446,0.981081,1.427018,-0.752476,-0.304442,0.355624,1.997408,-0.693537,-0.034847,-0.39104,3.057225,-0.420844,0.495717,-0.036668,3.40561,-0.730853,0.716527,0.922342,3.032262,-0.696432,0.082963,0.49983,0.305659,-1.81967,-1.08093,1.32353,0.523958,-0.553825,-0.890017,0.159478,4.674482,-0.132033,-0.116033,1.217466,-2.274382,-1.756636,-0.979334,-0.558372,0.178992,-1.017745,-1.212603,0.999763,-1.410439,0.135822,-0.37667,-0.079733,-3.342102,-0.864226,-0.33254,-0.567097,-3.581678,-0.54022,-0.267211,-0.247505,-0.192453,1.162407,0.842603,0.491448,-10.587887,-1.121668,0.363809,-0.684557,-5.09122,-0.063872,-0.435427,-1.093707,-7.769759,-1.79154,0.397285,-0.75864,-0.304433,-0.152158,2.458826,0.433518,-0.332787,-1.308557,0.456861,-0.315758,-629.97168,401.289551,439.440552,-1060.571899,-3.107496,0.396065,-0.081525,-0.486529
stress22,L2,F0,400_600,1.668639,3.397536,-0.984828,-7.51032,0.037167,-0.068033,-3.2677,-3.90643,0.443813,-0.672274,-0.690679,-2.375982,1.089405,-2.691659,2.768032,0.314873,-0.178414,-1.185431,-1.186284,-1.354463,-0.819874,-0.644969,-4.732156,-2.549692,-0.801144,0.547892,-1.3877,-0.359404,1.303575,-3.317997,0.859371,0.416932,-0.29565,-2.035438,6.103179,4.246444,-0.700542,-2.33418,-0.259565,-0.427731,-2.811934,1.336155,-1.479766,0.963648,-4.065711,2.045591,-0.606273,1.622074,-1.990653,0.417652,-0.731808,2.416579,-0.130232,-2.77181,-0.861815,0.529964,-2.002532,-0.76144,-0.759034,0.387556,-2.609708,0.477376,-0.399694,1.378189,-3.01351,-0.197415,0.371425,1.778426,-3.64213,0.840466,-1.03251,0.854995,-2.132075,-0.200351,1.648058,0.436822,-0.798197,1.710728,9.131524,3.852269,-2.410913,0.801189,-0.58731,0.126202,-3.529132,1.431308,-2.00824,1.162743,-2.977988,0.374961,-3.047794,0.395932,-2.17787,0.685584,-3.381498,-0.47077,-0.89713,1.133286,2.366459,-0.404864,-1.212767,0.928826,4.030658,0.59334,-2.474831,0.746173,-0.55581,-1.7783,-2.291011,-0.877295,-5.681563,-2.144958,-1.416494,-0.138786,-3.853242,-3.225176,-1.491039,0.815479,1.470986,-1.073983,-0.915996,3.684872,-3.136026,-6.697728,-914.8125,338.203674,428.158356,-995.34198,0.364616,0.108237,-5.078235,-2.699571
stress23,L2,F0,400_600,5.886997,9.298113,-3.518943,2.655576,3.013744,5.824721,-5.083113,-0.563779,3.162276,18.114801,-3.720728,5.167693,2.914818,14.400753,-2.175412,5.157284,3.975134,7.45993,-5.973826,1.497978,4.245501,0.821998,-5.383238,-2.94243,3.597093,0.76914,-4.14944,-0.95149,3.981197,8.130016,-2.953057,-0.198817,-12.410694,5.78229,10.593079,5.103919,5.981451,3.210177,-4.483765,2.499458,2.654788,-2.224174,-3.579861,-3.009876,6.237764,-3.42302,-1.389332,-3.595393,4.473435,-2.494953,-0.699988,-3.33162,6.787404,-1.013468,1.991822,1.82335,5.230511,-4.532697,5.276902,-3.35791,5.791968,-4.184347,3.148364,-3.325654,5.746622,-5.154152,3.310675,-4.391081,5.485467,-4.931562,-0.516349,-4.679803,1.572277,-4.741027,12.715153,-0.231583,-3.074845,-4.135137,6.524942,2.002177,6.262868,-5.868671,-1.721973,-3.337378,5.633432,-4.110909,-4.259345,-2.94884,5.101752,-4.777236,-5.535325,-1.687924,4.971923,-4.746069,-2.867313,-2.474816,-3.842728,-1.403758,-1.577537,-5.288943,1.713934,-10.014059,-5.608957,0.604983,3.878505,-6.662321,1.4886,4.160999,6.063372,-3.244959,-4.735959,-2.311651,3.509053,-0.788718,-5.157647,-1.884249,-2.104964,-15.17612,-3.093089,-4.274561,4.281501,-2.401608,0.185011,-1.569874,-903.880188,250.861206,321.74231,-983.861328,5.161849,-0.549051,-5.706006,-2.368698
stress24,L2,F0,400_600,-2.624868,-0.747236,-6.136744,-2.198122,-1.180078,1.174944,-1.31565,-2.409007,1.006672,6.604687,-0.562214,-1.459455,0.686011,3.465134,3.772406,0.511145,-0.177046,3.170259,0.664015,-1.215184,-2.748985,-1.366554,-1.436641,-0.054594,-0.294882,-0.674704,-0.743863,-0.223186,-0.929228,0.867191,1.76694,-0.19409,7.502853,3.473266,5.332476,1.172202,1.91327,-1.5056,1.028837,0.020511,0.013482,-1.997931,-1.877435,0.782604,-0.478485,-3.048837,-3.530976,-0.875047,1.22534,-1.211807,0.091838,-0.36749,2.220537,-0.50429,3.768437,0.813421,-0.01258,-2.943504,0.282543,0.957668,-0.527656,-3.411211,-1.821539,0.764601,-1.73727,-4.132121,-3.357082,0.056736,-1.658231,-3.794627,-3.883106,-1.12659,-1.428752,-4.09098,-2.897708,-0.316388,1.83153,-0.013232,-0.109927,2.013616,-1.802407,-3.760396,-4.35537,-3.986379,-1.543413,-2.093085,-4.407601,-2.436904,-1.627613,-1.617289,-2.838788,1.064199,-2.104523,-2.610087,-3.134915,-2.620142,-4.467189,-2.034381,-4.66802,-4.337681,-2.367572,2.057565,-1.30019,-1.369453,-3.231656,-1.802839,-2.77387,-2.936258,-3.085761,-0.9119,-2.417902,-0.612227,-3.159086,-1.379769,-4.541972,0.607288,-2.22987,1.151384,-0.511116,-2.185412,-4.7741,-1.218536,-10.056399,-2.769079,-701.167542,271.202576,440.447906,-866.432251,-3.11146,-1.153343,-1.740849,-1.061939
stress25,L2,F0,400_600,-2.970184,-2.053503,-1.794628,-2.397158,-0.137264,-2.706231,-0.010879,-0.847473,0.056828,-0.3968,1.301909,1.649035,0.290504,-0.176327,-0.076709,3.057802,0.5664,-0.718547,-0.067092,-1.177934,0.019639,-1.154221,-0.47916,-3.271529,1.310326,-0.114723,-0.459539,-2.00633,-0.41891,-0.216507,-0.602228,2.624327,2.929952,4.315145,0.964639,6.427523,3.055703,1.879802,-0.087437,-0.377096,1.029482,0.244679,-0.652648,-0.987393,1.373121,-0.867203,-1.267187,-0.786475,4.116486,1.892717,0.668872,0.422118,3.673756,1.610817,0.919796,3.834921,2.539318,0.386096,0.869517,3.100223,1.860225,-1.094584,-0.164267,1.44137,0.116284,-1.477324,-1.945584,0.027094,0.531078,-1.740714,-1.920243,-0.737089,-0.970105,-1.310746,-2.237843,-1.507235,0.659298,2.300017,0.153711,3.30645,-0.430548,-0.757239,-1.552639,-1.985238,1.096593,-1.509594,-2.494824,-2.492664,0.06282,-0.728313,-1.790645,-2.887369,-0.497883,-0.261447,-1.335492,-3.104218,-0.106938,-0.573994,-0.928568,-2.048236,-2.217624,0.394347,-0.723266,-0.924301,-1.237351,-0.248748,-0.876267,-2.318121,-0.942731,-1.418545,-0.041512,-3.761872,-1.334043,-2.280202,-1.08065,-3.820556,-2.212704,-0.093112,-0.73977,-1.862071,-3.327951,-4.047163,-2.997115,-5.04748,-607.224854,132.525513,358.877258,-1012.21051,-1.196417,-2.205052,-0.372783,-3.244657
stress26,L2,F0,400_600,0.467868,-16.390823,15.3763,-16.205969,2.90476,-5.963216,2.255087,-2.749653,2.085731,-3.697558,-0.899364,-6.271256,0.727089,-0.421798,-2.420692,-2.204486,1.173616,-3.11091,-0.990373,-0.934047,2.920074,-4.465637,2.963166,0.478232,2.192767,-1.177321,3.838249,1.354579,0.178852,-0.614886,-2.612084,1.337211,-4.18151,9.228005,-3.215658,0.619387,0.658757,0.518186,0.074047,-0.036014,0.561305,-0.667991,3.774156,2.631525,-1.880965,0.690694,4.534725,1.046373,0.00334,0.843978,1.574509,0.622024,-1.962336,2.032723,-0.269916,0.991257,-3.752983,2.138616,-0.214579,1.221388,-7.07552,0.058824,4.450873,1.278474,-4.036026,2.315426,0.161153,-0.816261,-2.285595,-0.399985,1.951536,0.495794,-2.335615,1.884573,0.661166,0.412929,-5.308146,9.126692,-2.777601,0.956507,-0.79537,-0.843667,0.622964,-0.941854,2.165904,-2.543306,2.330495,1.275511,0.614535,-2.139027,4.057835,0.306253,-0.488449,-2.591253,2.821208,0.603244,-0.835166,1.391354,0.645837,1.25786,1.582662,1.43442,-0.252717,2.002463,1.895835,-3.763238,1.743235,0.862072,1.512179,-4.12558,2.106829,0.792961,3.425882,-5.422989,1.756175,-0.312346,4.053533,-3.434901,2.488402,-0.291578,7.98348,-16.560616,8.805291,-9.556499,-526.681213,260.778168,346.806,-933.109924,3.163217,-6.11823,1.997753,-0.525298
stress27,L2,F0,400_600,16.717268,11.530397,-38.273952,-0.187818,21.422258,-5.503678,3.349873,15.062256,54.553715,-7.629609,24.950972,40.872269,30.822138,-7.533422,23.742319,22.908609,30.30172,0.978514,15.151046,19.775808,7.123257,-6.317399,0.109344,5.676237,10.059535,-8.809094,5.389243,9.19818,17.146029,-1.545561,13.126959,11.511139,6.324646,0.680313,15.708603,6.02877,8.65058,-4.980736,6.103391,7.171299,3.221861,-6.88537,2.104291,3.850008,-1.348986,-7.00407,-0.182154,1.528475,4.038704,-5.958358,3.221509,5.389821,5.432039,-2.714665,4.93055,4.992961,1.149943,-4.748448,2.362177,2.912845,-1.406598,-4.541183,1.526726,1.701283,-4.526356,-3.304086,0.082114,-1.324956,-7.933284,-3.267431,-1.442385,-2.132509,-8.665882,-1.201136,-1.213097,-4.76534,-10.193175,4.075334,6.377516,-6.407285,-12.836348,-1.9725,-3.573607,-6.246788,-6.194186,-5.846233,-2.886996,-3.263284,-0.801889,-6.983955,-3.029397,-0.505107,-12.447856,-2.306938,-6.524873,-6.73761,-18.410513,2.343422,-6.180396,-11.783657,-26.1056,6.750179,-10.308899,-21.357464,-22.569941,4.414421,-9.847893,-16.49769,-6.08503,-3.555308,-6.101369,-3.271317,-12.197145,2.535174,-14.968835,-10.229016,-38.087601,13.617878,-24.256454,-30.212307,4.926826,8.646216,-34.857044,-2.895146,-1101.006714,522.942078,575.863831,-980.570129,1.289512,-1.585216,-7.362041,0.126171
stress3,L1,F0,400_600,-10.314985,-6.68674,-7.681865,-54.292206,-5.545633,-0.65537,-0.24647,-24.4107,-5.785872,-1.471877,-0.225147,-29.564657,-1.293564,3.130061,0.450536,-4.395326,-4.178784,0.007209,1.954576,-16.305733,-3.639324,0.006335,2.57487,-14.9671,-2.52899,1.697614,2.269062,-11.456081,-2.903662,0.145564,1.299401,-4.776119,8.832896,2.711235,-2.06166,24.36039,-2.794898,2.084649,2.88494,-4.608578,-1.324689,2.082325,1.490183,-7.574564,-0.380256,1.861107,0.118386,-5.204492,-1.673148,1.351575,3.107683,-3.86827,1.974818,1.958028,4.345446,2.453506,2.888975,0.901094,1.232735,3.58605,3.528461,0.010668,-0.266609,3.649893,4.397836,2.087034,-0.381322,4.596214,-0.481636,1.251524,-0.2619,-2.366754,-0.39086,-1.364847,-0.454768,4.434284,4.595811,0.811687,-1.987161,27.847799,-2.338976,-0.057296,-0.855773,-0.239002,-0.562154,1.157814,-0.056902,-4.904532,-1.100257,-0.377222,1.266048,-9.237181,-0.819885,0.86223,-0.28668,-3.981724,-2.375442,-1.187745,-3.407883,6.537532,1.429757,1.437679,-2.364913,15.607589,-1.857036,-0.24625,-1.169062,0.50854,-1.633432,-0.136243,1.844977,-9.793382,-4.346279,-1.370767,-0.866958,-10.895555,0.037887,1.275503,-1.417783,12.620867,-9.684431,-4.519239,-4.898741,-42.005852,1348.96875,714.587952,1079.369629,-1151.360229,-4.476235,-1.174307,1.349606,-17.402731
stress3,L2,F0,400_600,-1.621339,1.900771,0.302925,-1.269552,0.251457,-0.094414,-1.338929,-3.75554,1.727141,1.387401,1.753743,-3.525722,4.102754,0.959317,1.300332,-0.386638,0.13592,0.342919,-1.441844,-1.042625,-2.241364,-2.224703,-0.725943,-3.469217,-2.848377,-1.672708,0.068944,-1.933165,2.253271,0.314876,-0.557826,0.157114,4.495921,1.593412,0.276277,7.846857,-1.181005,-0.448274,-0.253586,-0.375566,-2.916568,-2.590218,1.50645,-1.748706,-4.718365,-5.728144,2.115719,-0.765519,-2.265013,-2.411548,0.629689,0.284224,0.095794,-0.433246,-0.219153,2.275807,-1.294097,-3.72117,-0.337606,0.638226,-2.047502,-5.107758,-0.396908,0.114644,-3.279025,-5.76588,0.634572,-1.428156,-4.819325,-5.402561,0.635851,-3.281571,-1.333177,-3.843119,0.327716,-0.144806,0.852087,0.71125,3.269072,5.946962,-4.140604,-3.238063,0.535733,-3.171988,-5.112959,-3.85185,0.542698,-2.839569,-3.72802,-3.076237,0.128348,-3.045009,-4.578646,-2.045424,-0.419594,-2.756392,-2.5643,-0.821318,-0.096967,-1.128339,-0.029273,1.187807,2.672309,1.707558,-2.265611,-0.536692,1.023818,-1.66311,-2.341573,-2.146281,-1.858441,-4.16382,-3.372967,-1.466626,-0.779889,-3.824355,-1.706878,0.137979,1.282106,-0.986449,-1.985393,0.242449,-0.725429,-0.974179,422.257446,363.471283,633.620544,-887.891785,-1.78267,-0.768221,-1.181783,-4.597939
stress4,L1,F0,400_600,-4.049647,3.767209,5.982451,-4.369382,-0.359609,4.745837,3.471045,-1.0718,3.629454,2.648347,4.523867,-2.706001,2.907268,2.171109,1.906942,-1.841172,-1.191714,5.862143,1.115935,-0.577824,1.562605,1.818033,-0.544453,2.678491,-0.337873,2.898444,-1.438681,4.661393,1.662943,-0.200857,1.353451,0.563791,0.673608,-1.691617,1.74412,-3.122857,-0.388428,1.505555,0.906682,0.920782,1.255693,1.006473,-1.4345,4.69819,1.06655,-0.002615,-1.20278,4.195088,1.257931,1.574337,-0.120958,3.322317,-1.406771,2.665746,2.015318,-2.147719,0.120751,-1.02597,5.59707,0.222372,0.125843,-0.970234,5.674525,0.168714,0.087178,-5.68869,-0.853864,-3.073355,-1.186981,-0.318242,-2.258859,2.973386,-5.143804,-0.170128,1.391366,-4.65495,0.860118,-4.450316,-0.686759,-4.28234,-3.107492,-0.525082,0.504176,-2.063589,0.900647,0.530783,-2.346358,4.660858,1.941614,-0.726703,-1.373688,4.873958,-1.895722,0.825326,-1.816824,0.753043,7.081556,-0.957939,-2.06966,-0.520002,3.487482,-3.941018,2.971274,-4.99421,-1.278407,-0.11369,2.485506,-4.240719,1.141345,0.782059,-0.315582,2.593342,-4.078022,0.467826,7.026003,0.780551,-5.909878,6.741338,5.374129,-2.962206,-2.947565,4.374385,6.244647,-7.694872,1712.784058,878.360107,1574.063721,-1008.727295,-0.511238,2.047312,-0.352456,2.468398
stress4,L2,F0,400_600,0.751901,1.035168,-1.43537,-0.953387,2.407478,1.924503,-3.07211,-5.310509,1.785512,2.768266,-1.805906,-0.471099,1.275673,1.02228,-1.487982,2.727784,-0.712589,1.29276,-2.828621,-0.989294,1.951369,3.421988,-3.439315,-5.655097,-0.484466,0.460424,-3.519767,-2.256287,0.018043,-1.461293,-3.416963,0.259986,-2.162671,-3.899715,2.572825,6.222399,-0.465452,0.200094,-3.930072,0.13052,0.090677,-0.629024,-1.46902,-2.903938,-0.270694,-0.477275,-1.465828,-2.452343,-0.703366,0.169971,-3.409333,-0.890874,-0.995874,-1.785646,-3.135289,0.625601,-1.33058,0.384535,-2.837338,1.050651,-1.872205,-1.282593,-1.544406,-0.525163,-2.377282,-0.094923,-1.817305,-0.377936,-0.296276,-1.092609,-6.506549,-2.348494,-1.866387,0.978534,-2.168121,-0.448766,-0.723277,-1.198705,0.430137,2.476984,-0.561392,0.827481,-1.93899,-2.540099,-0.311771,0.181178,-0.198545,-4.634517,0.823705,0.121319,0.67182,-5.091418,0.260291,0.514639,-1.507032,-4.782513,3.37396,2.687253,-0.366126,-1.524844,2.591545,2.291698,4.049693,1.596501,-0.018921,2.825794,-1.389041,-3.404756,0.335259,3.686279,1.064281,-4.897591,1.123159,4.477961,-2.709195,-3.629507,3.011197,4.540646,-1.335339,-1.02478,3.443265,0.890767,-3.578624,-2.835357,358.450836,178.668549,591.470032,-1100.504517,0.961981,1.699473,-1.000988,-2.899795
stress5,L2,F0,400_600,0.410556,-24.294827,-26.894072,6.152251,-1.552579,2.802264,2.790791,-1.218749,4.345947,4.74063,5.579302,0.898652,5.281119,2.457058,3.282932,-1.030329,2.062241,4.153838,2.74299,-1.644438,-3.217911,3.557207,1.746256,-1.584526,-0.838715,3.305959,0.818691,-2.610889,3.929263,3.28432,3.23409,-1.926956,6.940487,-3.233147,-1.955887,2.19069,0.165303,1.784176,-0.464701,-3.201997,-4.026106,1.328246,-2.033042,-3.450541,-7.657768,-2.805311,-3.844748,-5.091726,-3.59729,-0.221764,-2.415592,-2.362928,0.073305,1.551287,-2.016531,-2.191123,-4.174038,-2.222003,-3.411631,-1.375257,-6.934644,-2.752634,-3.299188,-3.788111,-6.018129,-3.688498,-3.260301,-4.142095,-7.380229,-3.587934,-3.792288,-6.125995,-5.009171,-2.487829,-2.733898,-3.298167,3.199537,-6.709688,-1.577407,0.202963,-4.841415,-2.228848,-3.203961,-5.906387,-6.780503,-0.822404,-2.122077,-5.408025,-5.358566,3.089988,1.241533,-3.728863,-5.806396,-0.525057,-1.079349,-4.579737,-0.65815,-0.761997,-1.317761,-2.037369,-0.473271,-0.260506,1.44787,1.659006,-3.50509,-0.207682,-2.725536,-3.084996,-4.394174,2.91015,-0.030592,-2.908669,-3.596458,1.364499,-0.627985,-2.682837,-2.931637,-1.459829,-1.967288,-0.381976,-0.934056,-0.9323,-6.874765,5.741819,720.364136,272.617493,785.537231,-1108.149658,-3.380007,3.314279,1.177765,-0.797884
